File: docs/utils/cv_example_A.DTA
EXPLAIN
TAG	CV
TITLE	LABEL	Cyclic Voltammetry	Test &Identifier
DATE	LABEL	30/5/2023	Date
TIME	LABEL	9:49:02	Time
NOTES	NOTES	1	&Notes...

PSTAT	PSTAT	G03_1010-29239	Potentiostat
VINIT	POTEN	0,00000E+000	F	Initial &E (V)
VLIMIT1	POTEN	1,00000E+000	F	Scan Limit &1 (V)
VLIMIT2	POTEN	0,00000E+000	F	Scan Limit &2 (V)
VFINAL	POTEN	0,00000E+000	F	Final &E (V)
SCANRATE	QUANT	9,99998E+000	&Scan Rate (mV/s)
STEPSIZE	QUANT	2,00000E+000	St&ep Size (mV)
CYCLES	IQUANT	3	C&ycles (#)
IMODE	SELECTOR	0	I/E Range &Mode
IRANGE	QUANT	1,00000E+003	&Max Current (mA)
AREA	QUANT	1,00000E+000	Electrode &Area (cm^2)
ELECTRODETYPE	SELECTOR	0	Electrode Type
STRIPPING	TOGGLE	F	Used for Stripping
POLARITY	TOGGLE	F	Signal Polarity
CONDIT	TWOPARAM	F	1,50000E+001	0,00000E+000	Conditionin&g	Time(s)	E(V)
DELAY	TWOPARAM	T	5,00000E+000	0,00000E+000	Init. De&lay	Time(s)	Stab.(mV/s)
EQDELAY	QUANT	0,00000E+000	Equil. &Time (s)
IRCOMP	SELECTOR	0	IRCom&p
PFCOR	QUANT	5,00000E+001	PF Corr. (ohm)
SAMPLINGMODE	SELECTOR	1	Sampling &Mode
OCVCURVE	TABLE	20
	Pt	T	Vf	Vm	Ach	Over	Temp
	#	s	V vs. Ref.	V	V	bits	deg C
	0	0,25	2,20255E-001	2,20255E-001	0,00000E+000	...........	1406,77
	1	0,5	2,20260E-001	2,20489E-001	0,00000E+000	...........	1406,77
	2	0,75	2,20287E-001	2,20676E-001	0,00000E+000	...........	1406,77
	3	1	2,20361E-001	2,20915E-001	0,00000E+000	...........	1406,77
	4	1,25	2,20494E-001	2,21092E-001	0,00000E+000	...........	1406,15
	5	1,5	2,20673E-001	2,21319E-001	0,00000E+000	...........	1406,15
	6	1,75	2,20875E-001	2,21510E-001	0,00000E+000	...........	1406,15
	7	2	2,21084E-001	2,21726E-001	0,00000E+000	...........	1406,15
	8	2,25	2,21292E-001	2,21918E-001	0,00000E+000	...........	1406,07
	9	2,5	2,21498E-001	2,22091E-001	0,00000E+000	...........	1406,07
	10	2,75	2,21699E-001	2,22289E-001	0,00000E+000	...........	1406,07
	11	3	2,21894E-001	2,22497E-001	0,00000E+000	...........	1406,07
	12	3,25	2,22087E-001	2,22692E-001	0,00000E+000	...........	1406,07
	13	3,5	2,22281E-001	2,22907E-001	0,00000E+000	...........	1406,07
	14	3,75	2,22480E-001	2,23104E-001	0,00000E+000	...........	1406,07
	15	4	2,22682E-001	2,23337E-001	0,00000E+000	...........	1406,07
	16	4,25	2,22888E-001	2,23526E-001	0,00000E+000	...........	1406,15
	17	4,5	2,23097E-001	2,23741E-001	0,00000E+000	...........	1406,15
	18	4,75	2,23307E-001	2,23944E-001	0,00000E+000	...........	1406,15
	19	5	2,23516E-001	2,24184E-001	0,00000E+000	...........	1406,15
EOC	QUANT	0,2235157	Open Circuit (V)
PSTATMODEL	IQUANT	64	Pstat Model
PSTATSECTION	LABEL	IFC1010-29239	Pstat Section
PSTATSERIALNO	LABEL	29239	Pstat Serial Number
CTRLMODE	IQUANT	1	Control Mode
ELECTROMETER	IQUANT	0	RE=0 or CS=1
IESTAB	IQUANT	2	I/E Stability
CASPEED	IQUANT	4	Control Amp Speed
CONVENTION	IQUANT	1	Current Convention
ICHRANGE	IQUANT	2	Ich Range
ICHRANGEMODE	TOGGLE	F	Ich Auto Range
ICHOFFSETENABLE	TOGGLE	F	Ich Offset Enable
ICHOFFSET	QUANT	0	Ich Offset (V)
ICHFILTER	IQUANT	3	Ich Filter
VCHRANGE	IQUANT	2	Vch Range
VCHRANGEMODE	TOGGLE	F	Vch Auto Range
VCHOFFSETENABLE	TOGGLE	F	Vch Offset Enable
VCHOFFSET	QUANT	0	Vch Offset (V)
VCHFILTER	IQUANT	3	Vch Filter
IERANGELOWERLIMIT	IQUANT	4	I/E Range Lower Limit
IERANGEMODE	TOGGLE	T	I/E AutoRange
IERANGE	IQUANT	12	I/E Range
ACHSELECT	IQUANT	0	Ach Select
ACHRANGE	IQUANT	2	Ach Range
ACHOFFSETENABLE	TOGGLE	F	Ach Offset Enable
ACHOFFSET	QUANT	0	Ach Offset (V)
ACHFILTER	IQUANT	1	Ach Filter
SENSECABLEID	IQUANT	13	Sense Cable ID
PWRCABLEID	IQUANT	13	Power Cable ID
DCCALDATE	LABEL	2/14/2023	DC Calibration Date
ACCALDATE	LABEL	7/8/2021	AC Calibration Date
FRAMEWORKVERSION	LABEL	7.8.4	Framework Version
INSTRUMENTVERSION	LABEL	4.42	Instrument Version
CURVE1	TABLE
	Pt	T	Vf	Im	Vu	Sig	Ach	IERange	Over	Temp
	#	s	V vs. Ref.	A	V	V	V	#	bits	deg C
	0	0,2	6,36496E-005	-2,47246E-002	0,00000E+000	1,71065E-005	0,00000E+000	12	...........	1406,15
	10	2,2	2,00778E-002	-2,39086E-003	0,00000E+000	2,00061E-002	0,00000E+000	10	...........	1405,37
	20	4,2	4,00712E-002	-7,05270E-004	0,00000E+000	3,99951E-002	0,00000E+000	9	...........	1405,28
	30	6,2	6,00714E-002	-1,54977E-004	0,00000E+000	5,99842E-002	0,00000E+000	9	...........	1405,19
	40	8,2	8,01155E-002	1,64487E-004	0,00000E+000	8,00232E-002	0,00000E+000	9	...........	1405,10
	50	10,2	1,00083E-001	4,03098E-004	0,00000E+000	1,00012E-001	0,00000E+000	9	...........	1405,28
	60	12,2	1,20104E-001	5,64531E-004	0,00000E+000	1,20001E-001	0,00000E+000	9	...........	1405,37
	70	14,2	1,40092E-001	6,73555E-004	0,00000E+000	1,39990E-001	0,00000E+000	9	...........	1405,28
	80	16,2	1,60100E-001	7,46721E-004	0,00000E+000	1,59979E-001	0,00000E+000	9	...........	1404,84
	90	18,2	1,80156E-001	7,94488E-004	0,00000E+000	1,80018E-001	0,00000E+000	9	...........	1404,75
	100	20,2	2,00131E-001	8,24146E-004	0,00000E+000	2,00007E-001	0,00000E+000	9	...........	1404,84
	110	22,2	2,20137E-001	8,55119E-004	0,00000E+000	2,19996E-001	0,00000E+000	9	...........	1404,93
	120	24,2	2,40127E-001	8,96081E-004	0,00000E+000	2,39985E-001	0,00000E+000	10	...........	1404,84
	130	26,2	2,60201E-001	9,48624E-004	0,00000E+000	2,60024E-001	0,00000E+000	10	...........	1405,28
	140	28,2	2,80184E-001	9,84570E-004	0,00000E+000	2,80013E-001	0,00000E+000	10	...........	1405,28
	150	30,2	3,00173E-001	1,00564E-003	0,00000E+000	3,00002E-001	0,00000E+000	10	...........	1405,28
	160	32,2	3,20186E-001	1,01804E-003	0,00000E+000	3,19991E-001	0,00000E+000	10	...........	1405,19
	170	34,2	3,40177E-001	1,02614E-003	0,00000E+000	3,39980E-001	0,00000E+000	10	...........	1405,28
	180	36,2	3,60225E-001	1,06306E-003	0,00000E+000	3,60019E-001	0,00000E+000	10	...........	1405,28
	190	38,2	3,80214E-001	1,06914E-003	0,00000E+000	3,80008E-001	0,00000E+000	10	...........	1405,28
	200	40,2	4,00224E-001	1,09222E-003	0,00000E+000	3,99997E-001	0,00000E+000	10	...........	1405,28
	210	42,2	4,20230E-001	1,13010E-003	0,00000E+000	4,19986E-001	0,00000E+000	10	...........	1405,28
	220	44,2	4,40226E-001	1,17342E-003	0,00000E+000	4,39976E-001	0,00000E+000	10	...........	1405,28
	230	46,2	4,60255E-001	1,23073E-003	0,00000E+000	4,60015E-001	0,00000E+000	10	...........	1405,10
	240	48,2	4,80269E-001	1,37730E-003	0,00000E+000	4,80004E-001	0,00000E+000	10	...........	1405,28
	250	50,2	5,00271E-001	1,67477E-003	0,00000E+000	4,99993E-001	0,00000E+000	10	...........	1405,28
	260	52,2	5,20283E-001	2,18244E-003	0,00000E+000	5,19982E-001	0,00000E+000	10	...........	1405,19
	270	54,2	5,40326E-001	2,97720E-003	0,00000E+000	5,40021E-001	0,00000E+000	10	...........	1405,37
	280	56,2	5,60312E-001	4,14348E-003	0,00000E+000	5,60010E-001	0,00000E+000	10	...........	1405,28
	290	58,2	5,80315E-001	5,74167E-003	0,00000E+000	5,79999E-001	0,00000E+000	10	...........	1405,28
	300	60,2	6,00306E-001	7,75907E-003	0,00000E+000	5,99988E-001	0,00000E+000	10	...........	1405,10
	310	62,2	6,20315E-001	1,02377E-002	0,00000E+000	6,19977E-001	0,00000E+000	11	...........	1405,37
	320	64,2	6,40378E-001	1,30511E-002	0,00000E+000	6,40016E-001	0,00000E+000	11	...........	1405,28
	330	66,2	6,60353E-001	1,61755E-002	0,00000E+000	6,60005E-001	0,00000E+000	11	...........	1405,19
	340	68,2	6,80375E-001	1,94121E-002	0,00000E+000	6,79994E-001	0,00000E+000	11	...........	1405,28
	350	70,2	7,00378E-001	2,25900E-002	0,00000E+000	6,99983E-001	0,00000E+000	11	...........	1405,28
	360	72,2	7,20424E-001	2,55098E-002	0,00000E+000	7,20022E-001	0,00000E+000	11	...........	1405,28
	370	74,2	7,40406E-001	2,77996E-002	0,00000E+000	7,40011E-001	0,00000E+000	11	...........	1405,02
	380	76,2	7,60416E-001	2,92613E-002	0,00000E+000	7,60000E-001	0,00000E+000	11	...........	1405,28
	390	78,2	7,80410E-001	2,96983E-002	0,00000E+000	7,79989E-001	0,00000E+000	11	...........	1405,28
	400	80,2	8,00418E-001	2,90015E-002	0,00000E+000	7,99978E-001	0,00000E+000	11	...........	1405,19
	410	82,2	8,20480E-001	2,71071E-002	0,00000E+000	8,20017E-001	0,00000E+000	11	...........	1404,93
	420	84,2	8,40470E-001	2,48136E-002	0,00000E+000	8,40006E-001	0,00000E+000	11	...........	1405,28
	430	86,2	8,60459E-001	2,36105E-002	0,00000E+000	8,59995E-001	0,00000E+000	11	...........	1405,37
	440	88,2	8,80463E-001	2,34312E-002	0,00000E+000	8,79984E-001	0,00000E+000	11	...........	1405,02
	450	90,2	9,00525E-001	2,41294E-002	0,00000E+000	9,00023E-001	0,00000E+000	11	...........	1405,37
	460	92,2	9,20504E-001	2,57348E-002	0,00000E+000	9,20012E-001	0,00000E+000	11	...........	1405,28
	470	94,2	9,40516E-001	2,82375E-002	0,00000E+000	9,40001E-001	0,00000E+000	11	...........	1405,10
	480	96,2	9,60514E-001	3,14567E-002	0,00000E+000	9,59990E-001	0,00000E+000	11	...........	1404,84
	490	98,2	9,80496E-001	3,51362E-002	0,00000E+000	9,79979E-001	0,00000E+000	11	...........	1405,37
	500	100,2	1,00055E+000	3,89859E-002	0,00000E+000	1,00002E+000	0,00000E+000	11	...........	1405,28
	510	102,2	9,80500E-001	3,38739E-002	0,00000E+000	9,79979E-001	0,00000E+000	11	...........	1405,02
	520	104,2	9,60502E-001	2,91200E-002	0,00000E+000	9,59990E-001	0,00000E+000	11	...........	1405,37
	530	106,2	9,40498E-001	2,48329E-002	0,00000E+000	9,40001E-001	0,00000E+000	11	...........	1405,37
	540	108,2	9,20515E-001	2,10805E-002	0,00000E+000	9,20012E-001	0,00000E+000	11	...........	1405,37
	550	110,2	9,00531E-001	1,78933E-002	0,00000E+000	9,00023E-001	0,00000E+000	11	...........	1404,93
	560	112,2	8,80475E-001	1,52022E-002	0,00000E+000	8,79984E-001	0,00000E+000	11	...........	1405,37
	570	114,2	8,60463E-001	1,29301E-002	0,00000E+000	8,59995E-001	0,00000E+000	11	...........	1405,37
	580	116,2	8,40466E-001	1,09676E-002	0,00000E+000	8,40006E-001	0,00000E+000	11	...........	1404,93
	590	118,2	8,20488E-001	9,26905E-003	0,00000E+000	8,20017E-001	0,00000E+000	11	...........	1405,37
	600	120,2	8,00392E-001	7,64282E-003	0,00000E+000	7,99978E-001	0,00000E+000	10	...........	1405,37
	610	122,2	7,80395E-001	6,04676E-003	0,00000E+000	7,79989E-001	0,00000E+000	10	...........	1405,37
	620	124,2	7,60402E-001	4,40724E-003	0,00000E+000	7,60000E-001	0,00000E+000	10	...........	1404,93
	630	126,2	7,40402E-001	2,58068E-003	0,00000E+000	7,40011E-001	0,00000E+000	10	...........	1405,37
	640	128,2	7,20410E-001	5,30129E-004	0,00000E+000	7,20022E-001	0,00000E+000	9	...........	1405,37
	650	130,2	7,00375E-001	-1,75788E-003	0,00000E+000	6,99983E-001	0,00000E+000	10	...........	1404,93
	660	132,2	6,80370E-001	-4,26988E-003	0,00000E+000	6,79994E-001	0,00000E+000	10	...........	1405,37
	670	134,2	6,60366E-001	-6,92865E-003	0,00000E+000	6,60005E-001	0,00000E+000	10	...........	1405,37
	680	136,2	6,40386E-001	-9,62923E-003	0,00000E+000	6,40016E-001	0,00000E+000	11	...........	1405,37
	690	138,2	6,20317E-001	-1,21437E-002	0,00000E+000	6,19977E-001	0,00000E+000	11	...........	1404,93
	700	140,2	6,00327E-001	-1,43411E-002	0,00000E+000	5,99988E-001	0,00000E+000	11	...........	1405,37
	710	142,2	5,80337E-001	-1,60534E-002	0,00000E+000	5,79999E-001	0,00000E+000	11	...........	1405,37
	720	144,2	5,60329E-001	-1,72830E-002	0,00000E+000	5,60010E-001	0,00000E+000	11	...........	1404,93
	730	146,2	5,40342E-001	-1,82662E-002	0,00000E+000	5,40021E-001	0,00000E+000	11	...........	1405,37
	740	148,2	5,20294E-001	-1,94490E-002	0,00000E+000	5,19982E-001	0,00000E+000	11	...........	1405,37
	750	150,2	5,00290E-001	-2,15943E-002	0,00000E+000	4,99993E-001	0,00000E+000	11	...........	1405,37
	760	152,2	4,80294E-001	-2,49019E-002	0,00000E+000	4,80004E-001	0,00000E+000	11	...........	1404,84
	770	154,2	4,60283E-001	-2,88441E-002	0,00000E+000	4,60015E-001	0,00000E+000	11	...........	1405,37
	780	156,2	4,40247E-001	-3,30375E-002	0,00000E+000	4,39976E-001	0,00000E+000	11	...........	1405,37
	790	158,2	4,20239E-001	-3,69186E-002	0,00000E+000	4,19986E-001	0,00000E+000	11	...........	1405,28
	800	160,2	4,00241E-001	-4,01126E-002	0,00000E+000	3,99997E-001	0,00000E+000	11	...........	1405,37
	810	162,2	3,80223E-001	-4,20872E-002	0,00000E+000	3,80008E-001	0,00000E+000	11	...........	1405,37
	820	164,2	3,60254E-001	-4,22263E-002	0,00000E+000	3,60019E-001	0,00000E+000	11	...........	1405,37
	830	166,2	3,40214E-001	-3,99305E-002	0,00000E+000	3,39980E-001	0,00000E+000	11	...........	1405,37
	840	168,2	3,20192E-001	-3,47156E-002	0,00000E+000	3,19991E-001	0,00000E+000	11	...........	1405,37
	850	170,2	3,00192E-001	-2,74356E-002	0,00000E+000	3,00002E-001	0,00000E+000	11	...........	1405,37
	860	172,2	2,80194E-001	-2,16268E-002	0,00000E+000	2,80013E-001	0,00000E+000	11	...........	1405,19
	870	174,2	2,60201E-001	-1,86128E-002	0,00000E+000	2,60024E-001	0,00000E+000	11	...........	1405,37
	880	176,2	2,40143E-001	-1,66973E-002	0,00000E+000	2,39985E-001	0,00000E+000	11	...........	1405,37
	890	178,2	2,20136E-001	-1,51798E-002	0,00000E+000	2,19996E-001	0,00000E+000	11	...........	1405,37
	900	180,2	2,00158E-001	-1,38736E-002	0,00000E+000	2,00007E-001	0,00000E+000	11	...........	1405,37
	910	182,2	1,80168E-001	-1,27385E-002	0,00000E+000	1,80018E-001	0,00000E+000	11	...........	1405,37
	920	184,2	1,60105E-001	-1,15872E-002	0,00000E+000	1,59979E-001	0,00000E+000	11	...........	1405,37
	930	186,2	1,40112E-001	-1,01836E-002	0,00000E+000	1,39990E-001	0,00000E+000	11	...........	1405,19
	940	188,2	1,20117E-001	-8,15550E-003	0,00000E+000	1,20001E-001	0,00000E+000	11	...........	1405,37
	950	190,2	1,00108E-001	-5,96684E-003	0,00000E+000	1,00012E-001	0,00000E+000	10	...........	1405,37
	960	192,2	8,01348E-002	-4,65003E-003	0,00000E+000	8,00232E-002	0,00000E+000	10	...........	1405,37
	970	194,2	6,00719E-002	-4,22460E-003	0,00000E+000	5,99842E-002	0,00000E+000	10	...........	1405,37
	980	196,2	4,00777E-002	-4,30316E-003	0,00000E+000	3,99951E-002	0,00000E+000	10	...........	1405,37
	990	198,2	2,00853E-002	-4,57080E-003	0,00000E+000	2,00061E-002	0,00000E+000	10	...........	1405,37
	1000	200,2	1,00763E-004	-4,85074E-003	0,00000E+000	1,71065E-005	0,00000E+000	10	...........	1405,19
CURVE2	TABLE
	Pt	T	Vf	Im	Vu	Sig	Ach	IERange	Over	Temp
	#	s	V vs. Ref.	A	V	V	V	#	bits	deg C
	1001	200,4	2,08558E-003	-4,29939E-003	0,00000E+000	2,01601E-003	0,00000E+000	10	...........	1405,19
	1011	202,4	2,20769E-002	-2,76198E-003	0,00000E+000	2,20050E-002	0,00000E+000	10	...........	1405,37
	1021	204,4	4,20792E-002	-1,94638E-003	0,00000E+000	4,19940E-002	0,00000E+000	10	...........	1405,37
	1031	206,4	6,20759E-002	-1,28465E-003	0,00000E+000	6,19831E-002	0,00000E+000	10	...........	1405,37
	1041	208,4	8,21332E-002	-7,36859E-004	0,00000E+000	8,20221E-002	0,00000E+000	9	...........	1405,37
	1051	210,4	1,02134E-001	-3,19100E-004	0,00000E+000	1,02011E-001	0,00000E+000	9	...........	1405,37
	1061	212,4	1,22121E-001	-8,58282E-006	0,00000E+000	1,22000E-001	0,00000E+000	8	...........	1405,37
	1071	214,4	1,42115E-001	2,06972E-004	0,00000E+000	1,41989E-001	0,00000E+000	9	...........	1405,28
	1081	216,4	1,62105E-001	3,76274E-004	0,00000E+000	1,61978E-001	0,00000E+000	9	...........	1405,37
	1091	218,4	1,82149E-001	4,90049E-004	0,00000E+000	1,82017E-001	0,00000E+000	9	...........	1405,37
	1101	220,4	2,02145E-001	6,14395E-004	0,00000E+000	2,02006E-001	0,00000E+000	9	...........	1405,37
	1111	222,4	2,22155E-001	7,41928E-004	0,00000E+000	2,21995E-001	0,00000E+000	9	...........	1405,02
	1121	224,4	2,42136E-001	9,08562E-004	0,00000E+000	2,41984E-001	0,00000E+000	9	...........	1404,93
	1131	226,4	2,62204E-001	1,10789E-003	0,00000E+000	2,62023E-001	0,00000E+000	10	...........	1405,28
	1141	228,4	2,82195E-001	1,34902E-003	0,00000E+000	2,82012E-001	0,00000E+000	10	...........	1405,37
	1151	230,4	3,02186E-001	1,64137E-003	0,00000E+000	3,02001E-001	0,00000E+000	10	...........	1405,37
	1161	232,4	3,22164E-001	1,99680E-003	0,00000E+000	3,21990E-001	0,00000E+000	10	...........	1405,37
	1171	234,4	3,42177E-001	2,38634E-003	0,00000E+000	3,41979E-001	0,00000E+000	10	...........	1405,19
	1181	236,4	3,62233E-001	2,77200E-003	0,00000E+000	3,62018E-001	0,00000E+000	10	...........	1405,37
	1191	238,4	3,82222E-001	3,12383E-003	0,00000E+000	3,82007E-001	0,00000E+000	10	...........	1405,37
	1201	240,4	4,02220E-001	3,52518E-003	0,00000E+000	4,01996E-001	0,00000E+000	10	...........	1405,28
	1211	242,4	4,22236E-001	3,86953E-003	0,00000E+000	4,21985E-001	0,00000E+000	10	...........	1405,37
	1221	244,4	4,42275E-001	4,13688E-003	0,00000E+000	4,42024E-001	0,00000E+000	10	...........	1405,37
	1231	246,4	4,62277E-001	4,39851E-003	0,00000E+000	4,62013E-001	0,00000E+000	10	...........	1405,37
	1241	248,4	4,82262E-001	5,30270E-003	0,00000E+000	4,82002E-001	0,00000E+000	10	...........	1405,19
	1251	250,4	5,02282E-001	7,53438E-003	0,00000E+000	5,01991E-001	0,00000E+000	10	...........	1405,37
	1261	252,4	5,22290E-001	1,09821E-002	0,00000E+000	5,21981E-001	0,00000E+000	11	...........	1405,45
	1271	254,4	5,42323E-001	1,53067E-002	0,00000E+000	5,42019E-001	0,00000E+000	11	...........	1405,28
	1281	256,4	5,62315E-001	2,00670E-002	0,00000E+000	5,62009E-001	0,00000E+000	11	...........	1405,37
	1291	258,4	5,82322E-001	2,49799E-002	0,00000E+000	5,81998E-001	0,00000E+000	11	...........	1405,37
	1301	260,4	6,02334E-001	2,97153E-002	0,00000E+000	6,01987E-001	0,00000E+000	11	...........	1405,37
	1311	262,4	6,22327E-001	3,38830E-002	0,00000E+000	6,21976E-001	0,00000E+000	11	...........	1405,10
	1321	264,4	6,42381E-001	3,70785E-002	0,00000E+000	6,42015E-001	0,00000E+000	11	...........	1405,37
	1331	266,4	6,62360E-001	3,87914E-002	0,00000E+000	6,62004E-001	0,00000E+000	11	...........	1405,37
	1341	268,4	6,82374E-001	3,84320E-002	0,00000E+000	6,81993E-001	0,00000E+000	11	...........	1405,28
[...]
	2171	434,4	3,42184E-001	2,96390E-003	0,00000E+000	3,41979E-001	0,00000E+000	10	...........	1405,37
	2181	436,4	3,62224E-001	3,56960E-003	0,00000E+000	3,62018E-001	0,00000E+000	10	...........	1405,19
	2191	438,4	3,82205E-001	4,07751E-003	0,00000E+000	3,82007E-001	0,00000E+000	10	...........	1405,45
	2201	440,4	4,02230E-001	4,63953E-003	0,00000E+000	4,01996E-001	0,00000E+000	10	...........	1405,45
	2211	442,4	4,22240E-001	5,28612E-003	0,00000E+000	4,21985E-001	0,00000E+000	10	...........	1405,37
	2221	444,4	4,42286E-001	5,92394E-003	0,00000E+000	4,42024E-001	0,00000E+000	10	...........	1405,10
	2231	446,4	4,62264E-001	6,47910E-003	0,00000E+000	4,62013E-001	0,00000E+000	10	...........	1405,45
	2241	448,4	4,82273E-001	7,30827E-003	0,00000E+000	4,82002E-001	0,00000E+000	10	...........	1405,45
	2251	450,4	5,02295E-001	9,39365E-003	0,00000E+000	5,01991E-001	0,00000E+000	11	...........	1405,28
	2261	452,4	5,22274E-001	1,28177E-002	0,00000E+000	5,21981E-001	0,00000E+000	11	...........	1405,45
	2271	454,4	5,42333E-001	1,72497E-002	0,00000E+000	5,42019E-001	0,00000E+000	11	...........	1405,45
	2281	456,4	5,62319E-001	2,22780E-002	0,00000E+000	5,62009E-001	0,00000E+000	11	...........	1405,45
	2291	458,4	5,82316E-001	2,75323E-002	0,00000E+000	5,81998E-001	0,00000E+000	11	...........	1405,02
	2301	460,4	6,02332E-001	3,27217E-002	0,00000E+000	6,01987E-001	0,00000E+000	11	...........	1405,45
	2311	462,4	6,22340E-001	3,76364E-002	0,00000E+000	6,21976E-001	0,00000E+000	11	...........	1405,45
	2321	464,4	6,42381E-001	4,20084E-002	0,00000E+000	6,42015E-001	0,00000E+000	11	...........	1405,19
	2331	466,4	6,62350E-001	4,55558E-002	0,00000E+000	6,62004E-001	0,00000E+000	11	...........	1405,45
	2341	468,4	6,82368E-001	4,79019E-002	0,00000E+000	6,81993E-001	0,00000E+000	11	...........	1405,45
	2351	470,4	7,02368E-001	4,86826E-002	0,00000E+000	7,01982E-001	0,00000E+000	11	...........	1405,45
	2361	472,4	7,22421E-001	4,76644E-002	0,00000E+000	7,22021E-001	0,00000E+000	11	...........	1405,02
	2371	474,4	7,42427E-001	4,44506E-002	0,00000E+000	7,42010E-001	0,00000E+000	11	...........	1405,45
	2381	476,4	7,62405E-001	3,90150E-002	0,00000E+000	7,61999E-001	0,00000E+000	11	...........	1405,45
	2391	478,4	7,82402E-001	3,42391E-002	0,00000E+000	7,81988E-001	0,00000E+000	11	...........	1405,10
	2401	480,4	8,02413E-001	3,08729E-002	0,00000E+000	8,01977E-001	0,00000E+000	11	...........	1405,45
	2411	482,4	8,22461E-001	2,77317E-002	0,00000E+000	8,22016E-001	0,00000E+000	11	...........	1405,45
	2421	484,4	8,42470E-001	2,51950E-002	0,00000E+000	8,42005E-001	0,00000E+000	11	...........	1405,45
	2431	486,4	8,62468E-001	2,36182E-002	0,00000E+000	8,61994E-001	0,00000E+000	11	...........	1405,02
	2441	488,4	8,82464E-001	2,27476E-002	0,00000E+000	8,81983E-001	0,00000E+000	11	...........	1405,45
	2451	490,4	9,02541E-001	2,23847E-002	0,00000E+000	9,02022E-001	0,00000E+000	11	...........	1405,45
	2461	492,4	9,22520E-001	2,24891E-002	0,00000E+000	9,22011E-001	0,00000E+000	11	...........	1405,02
	2471	494,4	9,42506E-001	2,31831E-002	0,00000E+000	9,42000E-001	0,00000E+000	11	...........	1405,02
	2481	496,4	9,62499E-001	2,44906E-002	0,00000E+000	9,61989E-001	0,00000E+000	11	...........	1405,45
	2491	498,4	9,82515E-001	2,64236E-002	0,00000E+000	9,81978E-001	0,00000E+000	11	...........	1405,45
	2501	500,4	9,98562E-001	2,79004E-002	0,00000E+000	9,98019E-001	0,00000E+000	11	...........	1405,02
	2511	502,4	9,78516E-001	2,33443E-002	0,00000E+000	9,77980E-001	0,00000E+000	11	...........	1405,45
	2521	504,4	9,58511E-001	1,98419E-002	0,00000E+000	9,57991E-001	0,00000E+000	11	...........	1405,45
	2531	506,4	9,38500E-001	1,70244E-002	0,00000E+000	9,38002E-001	0,00000E+000	11	...........	1405,45
	2541	508,4	9,18512E-001	1,46897E-002	0,00000E+000	9,18013E-001	0,00000E+000	11	...........	1405,02
	2551	510,4	8,98535E-001	1,27263E-002	0,00000E+000	8,98024E-001	0,00000E+000	11	...........	1405,45
	2561	512,4	8,78473E-001	1,09979E-002	0,00000E+000	8,77985E-001	0,00000E+000	11	...........	1405,45
	2571	514,4	8,58481E-001	9,45432E-003	0,00000E+000	8,57996E-001	0,00000E+000	11	...........	1405,02
	2581	516,4	8,38474E-001	8,05370E-003	0,00000E+000	8,38007E-001	0,00000E+000	11	...........	1405,45
	2591	518,4	8,18451E-001	6,74183E-003	0,00000E+000	8,18018E-001	0,00000E+000	10	...........	1405,45
	2601	520,4	7,98398E-001	5,48533E-003	0,00000E+000	7,97979E-001	0,00000E+000	10	...........	1405,45
	2611	522,4	7,78417E-001	4,20924E-003	0,00000E+000	7,77990E-001	0,00000E+000	10	...........	1405,02
	2621	524,4	7,58399E-001	2,86642E-003	0,00000E+000	7,58001E-001	0,00000E+000	10	...........	1405,45
	2631	526,4	7,38393E-001	1,43164E-003	0,00000E+000	7,38012E-001	0,00000E+000	10	...........	1405,45
	2641	528,4	7,18436E-001	-1,08458E-004	0,00000E+000	7,18023E-001	0,00000E+000	8	....ih..i..	1405,02
	2651	530,4	6,98384E-001	-1,74047E-003	0,00000E+000	6,97984E-001	0,00000E+000	10	...........	1405,02
	2661	532,4	6,78375E-001	-3,44468E-003	0,00000E+000	6,77995E-001	0,00000E+000	10	...........	1405,45
	2671	534,4	6,58365E-001	-5,20035E-003	0,00000E+000	6,58006E-001	0,00000E+000	10	...........	1405,37
	2681	536,4	6,38366E-001	-6,93958E-003	0,00000E+000	6,38017E-001	0,00000E+000	10	...........	1405,54
	2691	538,4	6,18319E-001	-8,72214E-003	0,00000E+000	6,17978E-001	0,00000E+000	10	...........	1405,54
	2701	540,4	5,98325E-001	-1,04046E-002	0,00000E+000	5,97989E-001	0,00000E+000	11	...........	1405,45
	2711	542,4	5,78342E-001	-1,19899E-002	0,00000E+000	5,78000E-001	0,00000E+000	11	...........	1405,45
	2721	544,4	5,58343E-001	-1,35596E-002	0,00000E+000	5,58011E-001	0,00000E+000	11	...........	1405,54
	2731	546,4	5,38327E-001	-1,56476E-002	0,00000E+000	5,38022E-001	0,00000E+000	11	...........	1405,45
	2741	548,4	5,18296E-001	-1,86863E-002	0,00000E+000	5,17983E-001	0,00000E+000	11	...........	1405,45
	2751	550,4	4,98287E-001	-2,27018E-002	0,00000E+000	4,97994E-001	0,00000E+000	11	...........	1405,54
	2761	552,4	4,78291E-001	-2,74356E-002	0,00000E+000	4,78005E-001	0,00000E+000	11	...........	1405,45
	2771	554,4	4,58284E-001	-3,24552E-002	0,00000E+000	4,58016E-001	0,00000E+000	11	...........	1405,45
	2781	556,4	4,38245E-001	-3,75781E-002	0,00000E+000	4,37977E-001	0,00000E+000	11	...........	1405,54
	2791	558,4	4,18246E-001	-4,24440E-002	0,00000E+000	4,17988E-001	0,00000E+000	11	...........	1405,45
	2801	560,4	3,98247E-001	-4,68358E-002	0,00000E+000	3,97999E-001	0,00000E+000	11	...........	1405,45
	2811	562,4	3,78228E-001	-5,05040E-002	0,00000E+000	3,78010E-001	0,00000E+000	11	...........	1405,37
	2821	564,4	3,58250E-001	-5,31805E-002	0,00000E+000	3,58021E-001	0,00000E+000	11	...........	1405,45
	2831	566,4	3,38200E-001	-5,46937E-002	0,00000E+000	3,37982E-001	0,00000E+000	11	...........	1405,45
	2841	568,4	3,18184E-001	-5,49720E-002	0,00000E+000	3,17993E-001	0,00000E+000	11	...........	1405,45
	2851	570,4	2,98195E-001	-5,37872E-002	0,00000E+000	2,98003E-001	0,00000E+000	11	...........	1405,45
	2861	572,4	2,78200E-001	-5,08447E-002	0,00000E+000	2,78014E-001	0,00000E+000	11	...........	1405,54
	2871	574,4	2,58155E-001	-4,54441E-002	0,00000E+000	2,57975E-001	0,00000E+000	11	...........	1405,45
	2881	576,4	2,38158E-001	-3,69067E-002	0,00000E+000	2,37986E-001	0,00000E+000	11	...........	1405,37
	2891	578,4	2,18155E-001	-2,93805E-002	0,00000E+000	2,17997E-001	0,00000E+000	11	...........	1405,54
	2901	580,4	1,98161E-001	-2,47894E-002	0,00000E+000	1,98008E-001	0,00000E+000	11	...........	1405,45
	2911	582,4	1,78149E-001	-2,18893E-002	0,00000E+000	1,78019E-001	0,00000E+000	11	...........	1405,45
	2921	584,4	1,58112E-001	-1,99169E-002	0,00000E+000	1,57980E-001	0,00000E+000	11	...........	1405,45
	2931	586,4	1,38114E-001	-1,84575E-002	0,00000E+000	1,37991E-001	0,00000E+000	11	...........	1405,54
	2941	588,4	1,18117E-001	-1,72514E-002	0,00000E+000	1,18002E-001	0,00000E+000	11	...........	1405,45
	2951	590,4	9,81104E-002	-1,61952E-002	0,00000E+000	9,80133E-002	0,00000E+000	11	...........	1405,37
	2961	592,4	7,81358E-002	-1,51920E-002	0,00000E+000	7,80243E-002	0,00000E+000	11	...........	1405,54
	2971	594,4	5,80748E-002	-1,40465E-002	0,00000E+000	5,79853E-002	0,00000E+000	11	...........	1405,54
	2981	596,4	3,80862E-002	-1,22400E-002	0,00000E+000	3,79962E-002	0,00000E+000	11	...........	1405,37
	2991	598,4	1,80863E-002	-9,70686E-003	0,00000E+000	1,80072E-002	0,00000E+000	11	...........	1405,45
	3000	600,2	9,64615E-005	-8,07802E-003	0,00000E+000	1,71065E-005	0,00000E+000	11	...........	1405,45
CURVE4	TABLE
	Pt	T	Vf	Im	Vu	Sig	Ach	IERange	Over	Temp
	#	s	V vs. Ref.	A	V	V	V	#	bits	deg C
	3001	600,4	9,59113E-005	-7,62433E-003	0,00000E+000	1,71065E-005	0,00000E+000	10	...........	1405,45