File: docs/utils/cv_example_B.DTA
EXPLAIN
TAG	CV
TITLE	LABEL	Cyclic Voltammetry	Test &Identifier
DATE	LABEL	26/5/2023	Date
TIME	LABEL	16:28:53	Time
NOTES	NOTES	1	&Notes...

PSTAT	PSTAT	G03_1010-29239	Potentiostat
VINIT	POTEN	0,00000E+000	F	Initial &E (V)
VLIMIT1	POTEN	8,50000E-001	F	Scan Limit &1 (V)
VLIMIT2	POTEN	0,00000E+000	F	Scan Limit &2 (V)
VFINAL	POTEN	0,00000E+000	F	Final &E (V)
SCANRATE	QUANT	9,99998E+000	&Scan Rate (mV/s)
STEPSIZE	QUANT	2,00000E+000	St&ep Size (mV)
CYCLES	IQUANT	3	C&ycles (#)
IMODE	SELECTOR	0	I/E Range &Mode
IRANGE	QUANT	1,00000E+003	&Max Current (mA)
AREA	QUANT	1,00000E+000	Electrode &Area (cm^2)
ELECTRODETYPE	SELECTOR	0	Electrode Type
STRIPPING	TOGGLE	F	Used for Stripping
POLARITY	TOGGLE	F	Signal Polarity
CONDIT	TWOPARAM	F	1,50000E+001	0,00000E+000	Conditionin&g	Time(s)	E(V)
DELAY	TWOPARAM	T	5,00000E+000	0,00000E+000	Init. De&lay	Time(s)	Stab.(mV/s)
EQDELAY	QUANT	0,00000E+000	Equil. &Time (s)
IRCOMP	SELECTOR	0	IRCom&p
PFCOR	QUANT	5,00000E+001	PF Corr. (ohm)
SAMPLINGMODE	SELECTOR	1	Sampling &Mode
OCVCURVE	TABLE	20
	Pt	T	Vf	Vm	Ach	Over	Temp
	#	s	V vs. Ref.	V	V	bits	deg C
	0	0,25	2,07121E-002	2,07121E-002	0,00000E+000	...........	1406,42
	1	0,5	2,07123E-002	2,07230E-002	0,00000E+000	...........	1406,42
	2	0,75	2,07135E-002	2,07311E-002	0,00000E+000	...........	1406,42
	3	1	2,07171E-002	2,07503E-002	0,00000E+000	...........	1406,42
	4	1,25	2,07239E-002	2,07555E-002	0,00000E+000	...........	1406,24
	5	1,5	2,07339E-002	2,07826E-002	0,00000E+000	...........	1406,24
	6	1,75	2,07461E-002	2,07776E-002	0,00000E+000	...........	1406,24
	7	2	2,07592E-002	2,08022E-002	0,00000E+000	...........	1406,24
	8	2,25	2,07720E-002	2,08022E-002	0,00000E+000	...........	1406,07
	9	2,5	2,07841E-002	2,08259E-002	0,00000E+000	...........	1406,07
	10	2,75	2,07957E-002	2,08277E-002	0,00000E+000	...........	1406,07
	11	3	2,08076E-002	2,08572E-002	0,00000E+000	...........	1406,07
	12	3,25	2,08202E-002	2,08499E-002	0,00000E+000	...........	1405,80
	13	3,5	2,08334E-002	2,08874E-002	0,00000E+000	...........	1405,80
	14	3,75	2,08470E-002	2,08869E-002	0,00000E+000	...........	1405,80
	15	4	2,08614E-002	2,09164E-002	0,00000E+000	...........	1405,80
	16	4,25	2,08766E-002	2,09088E-002	0,00000E+000	...........	1406,24
	17	4,5	2,08914E-002	2,09395E-002	0,00000E+000	...........	1406,24
	18	4,75	2,09050E-002	2,09285E-002	0,00000E+000	...........	1406,24
	19	5	2,09171E-002	2,09628E-002	0,00000E+000	...........	1406,24
EOC	QUANT	0,0209171	Open Circuit (V)
PSTATMODEL	IQUANT	64	Pstat Model
PSTATSECTION	LABEL	IFC1010-29239	Pstat Section
PSTATSERIALNO	LABEL	29239	Pstat Serial Number
CTRLMODE	IQUANT	1	Control Mode
ELECTROMETER	IQUANT	0	RE=0 or CS=1
IESTAB	IQUANT	2	I/E Stability
CASPEED	IQUANT	4	Control Amp Speed
CONVENTION	IQUANT	1	Current Convention
ICHRANGE	IQUANT	2	Ich Range
ICHRANGEMODE	TOGGLE	F	Ich Auto Range
ICHOFFSETENABLE	TOGGLE	F	Ich Offset Enable
ICHOFFSET	QUANT	0	Ich Offset (V)
ICHFILTER	IQUANT	3	Ich Filter
VCHRANGE	IQUANT	2	Vch Range
VCHRANGEMODE	TOGGLE	F	Vch Auto Range
VCHOFFSETENABLE	TOGGLE	F	Vch Offset Enable
VCHOFFSET	QUANT	0	Vch Offset (V)
VCHFILTER	IQUANT	3	Vch Filter
IERANGELOWERLIMIT	IQUANT	4	I/E Range Lower Limit
IERANGEMODE	TOGGLE	T	I/E AutoRange
IERANGE	IQUANT	12	I/E Range
ACHSELECT	IQUANT	0	Ach Select
ACHRANGE	IQUANT	2	Ach Range
ACHOFFSETENABLE	TOGGLE	F	Ach Offset Enable
ACHOFFSET	QUANT	0	Ach Offset (V)
ACHFILTER	IQUANT	1	Ach Filter
SENSECABLEID	IQUANT	13	Sense Cable ID
PWRCABLEID	IQUANT	13	Power Cable ID
DCCALDATE	LABEL	2/14/2023	DC Calibration Date
ACCALDATE	LABEL	7/8/2021	AC Calibration Date
FRAMEWORKVERSION	LABEL	7.8.4	Framework Version
INSTRUMENTVERSION	LABEL	4.42	Instrument Version
CURVE1	TABLE
	Pt	T	Vf	Im	Vu	Sig	Ach	IERange	Over	Temp
	#	s	V vs. Ref.	A	V	V	V	#	bits	deg C
	0	0,2	4,19418E-005	-1,97083E-003	0,00000E+000	-2,04444E-005	0,00000E+000	12	...........	1405,80
	9	2	1,80621E-002	3,72563E-004	0,00000E+000	1,80196E-002	0,00000E+000	9	...........	1405,37
	18	3,8	3,60591E-002	7,38634E-004	0,00000E+000	3,60098E-002	0,00000E+000	9	...........	1405,37
	27	5,6	5,40684E-002	9,11115E-004	0,00000E+000	5,39999E-002	0,00000E+000	10	...........	1405,37
	36	7,4	7,20543E-002	9,95351E-004	0,00000E+000	7,19900E-002	0,00000E+000	10	...........	1405,28
	45	9,2	9,00697E-002	1,03797E-003	0,00000E+000	8,99802E-002	0,00000E+000	10	...........	1405,37
	54	11	1,08111E-001	1,06589E-003	0,00000E+000	1,08020E-001	0,00000E+000	10	...........	1405,37
	63	12,8	1,26108E-001	1,08241E-003	0,00000E+000	1,26010E-001	0,00000E+000	10	...........	1405,37
	72	14,6	1,44107E-001	1,08952E-003	0,00000E+000	1,44000E-001	0,00000E+000	10	...........	1405,37
	81	16,4	1,62101E-001	1,10384E-003	0,00000E+000	1,61991E-001	0,00000E+000	10	...........	1405,37
	90	18,2	1,80120E-001	1,10997E-003	0,00000E+000	1,79981E-001	0,00000E+000	10	...........	1405,37
	99	20	1,98149E-001	1,11718E-003	0,00000E+000	1,98021E-001	0,00000E+000	10	...........	1405,37
	108	21,8	2,16143E-001	1,12590E-003	0,00000E+000	2,16011E-001	0,00000E+000	10	...........	1405,37
	117	23,6	2,34137E-001	1,13652E-003	0,00000E+000	2,34001E-001	0,00000E+000	10	...........	1405,37
	126	25,4	2,52124E-001	1,14402E-003	0,00000E+000	2,51991E-001	0,00000E+000	10	...........	1405,37
	135	27,2	2,70127E-001	1,16027E-003	0,00000E+000	2,69981E-001	0,00000E+000	10	...........	1405,37
	144	29	2,88188E-001	1,18052E-003	0,00000E+000	2,88021E-001	0,00000E+000	10	...........	1405,37
	153	30,8	3,06177E-001	1,20341E-003	0,00000E+000	3,06012E-001	0,00000E+000	10	...........	1405,37
	162	32,6	3,24180E-001	1,22958E-003	0,00000E+000	3,24002E-001	0,00000E+000	10	...........	1405,37
	171	34,4	3,42175E-001	1,25701E-003	0,00000E+000	3,41992E-001	0,00000E+000	10	...........	1405,37
	180	36,2	3,60176E-001	1,28545E-003	0,00000E+000	3,59982E-001	0,00000E+000	10	...........	1405,37
	189	38	3,78225E-001	1,31591E-003	0,00000E+000	3,78022E-001	0,00000E+000	10	...........	1405,37
	198	39,8	3,96221E-001	1,34262E-003	0,00000E+000	3,96012E-001	0,00000E+000	10	...........	1405,37
	207	41,6	4,14232E-001	1,35788E-003	0,00000E+000	4,14002E-001	0,00000E+000	10	...........	1405,45
	216	43,4	4,32209E-001	1,35986E-003	0,00000E+000	4,31992E-001	0,00000E+000	10	...........	1405,37
	225	45,2	4,50220E-001	1,36390E-003	0,00000E+000	4,49982E-001	0,00000E+000	10	...........	1405,37
	234	47	4,68290E-001	1,39365E-003	0,00000E+000	4,68023E-001	0,00000E+000	10	...........	1405,37
	243	48,8	4,86270E-001	1,47313E-003	0,00000E+000	4,86013E-001	0,00000E+000	10	...........	1405,37
	252	50,6	5,04273E-001	1,63162E-003	0,00000E+000	5,04003E-001	0,00000E+000	10	...........	1405,37
	261	52,4	5,22276E-001	1,92193E-003	0,00000E+000	5,21993E-001	0,00000E+000	10	...........	1405,45
	270	54,2	5,40276E-001	2,39795E-003	0,00000E+000	5,39983E-001	0,00000E+000	10	...........	1405,37
	279	56	5,58319E-001	3,13264E-003	0,00000E+000	5,58023E-001	0,00000E+000	10	...........	1405,37
	288	57,8	5,76320E-001	4,16102E-003	0,00000E+000	5,76013E-001	0,00000E+000	10	...........	1405,37
	297	59,6	5,94324E-001	5,54383E-003	0,00000E+000	5,94003E-001	0,00000E+000	10	...........	1405,45
	306	61,4	6,12319E-001	7,29730E-003	0,00000E+000	6,11994E-001	0,00000E+000	10	...........	1405,45
	315	63,2	6,30330E-001	9,44555E-003	0,00000E+000	6,29984E-001	0,00000E+000	11	...........	1405,54
	324	65	6,48370E-001	1,19608E-002	0,00000E+000	6,48024E-001	0,00000E+000	11	...........	1405,45
	333	66,8	6,66389E-001	1,47672E-002	0,00000E+000	6,66014E-001	0,00000E+000	11	...........	1405,37
	342	68,6	6,84364E-001	1,77985E-002	0,00000E+000	6,84004E-001	0,00000E+000	11	...........	1405,45
	351	70,4	7,02370E-001	2,09143E-002	0,00000E+000	7,01994E-001	0,00000E+000	11	...........	1405,45
	360	72,2	7,20385E-001	2,39430E-002	0,00000E+000	7,19984E-001	0,00000E+000	11	...........	1405,45
	369	74	7,38415E-001	2,67025E-002	0,00000E+000	7,38024E-001	0,00000E+000	11	...........	1405,45
	378	75,8	7,56416E-001	2,89741E-002	0,00000E+000	7,56014E-001	0,00000E+000	11	...........	1405,45
	387	77,6	7,74434E-001	3,05461E-002	0,00000E+000	7,74005E-001	0,00000E+000	11	...........	1405,45
	396	79,4	7,92413E-001	3,12236E-002	0,00000E+000	7,91995E-001	0,00000E+000	11	...........	1405,45
	405	81,2	8,10423E-001	3,08937E-002	0,00000E+000	8,09985E-001	0,00000E+000	11	...........	1405,45
	414	83	8,28474E-001	2,96699E-002	0,00000E+000	8,28025E-001	0,00000E+000	11	...........	1405,45
	423	84,8	8,46454E-001	2,79738E-002	0,00000E+000	8,46015E-001	0,00000E+000	11	...........	1405,37
	432	86,6	8,36465E-001	2,16730E-002	0,00000E+000	8,36020E-001	0,00000E+000	11	...........	1405,45
	441	88,4	8,18419E-001	1,67115E-002	0,00000E+000	8,17980E-001	0,00000E+000	11	...........	1405,45
	450	90,2	8,00438E-001	1,29804E-002	0,00000E+000	7,99990E-001	0,00000E+000	11	...........	1405,45
	459	92	7,82426E-001	9,81126E-003	0,00000E+000	7,82000E-001	0,00000E+000	11	...........	1405,45
	468	93,8	7,64387E-001	6,86689E-003	0,00000E+000	7,64010E-001	0,00000E+000	10	...........	1405,45
	477	95,6	7,46410E-001	3,93460E-003	0,00000E+000	7,46020E-001	0,00000E+000	10	...........	1405,45
	486	97,4	7,28358E-001	8,98950E-004	0,00000E+000	7,27980E-001	0,00000E+000	10	...........	1405,45
	495	99,2	7,10369E-001	-2,26754E-003	0,00000E+000	7,09990E-001	0,00000E+000	10	...........	1405,45
	504	101	6,92384E-001	-5,60319E-003	0,00000E+000	6,92000E-001	0,00000E+000	10	...........	1405,45
	513	102,8	6,74368E-001	-8,99555E-003	0,00000E+000	6,74009E-001	0,00000E+000	10	...........	1405,45
	522	104,6	6,56371E-001	-1,22000E-002	0,00000E+000	6,56019E-001	0,00000E+000	11	...........	1405,45
	531	106,4	6,38303E-001	-1,53443E-002	0,00000E+000	6,37979E-001	0,00000E+000	11	...........	1405,45
	540	108,2	6,20346E-001	-1,80327E-002	0,00000E+000	6,19989E-001	0,00000E+000	11	...........	1405,45
	549	110	6,02335E-001	-2,00744E-002	0,00000E+000	6,01999E-001	0,00000E+000	11	...........	1405,45
	558	111,8	5,84324E-001	-2,12505E-002	0,00000E+000	5,84009E-001	0,00000E+000	11	...........	1405,54
	567	113,6	5,66343E-001	-2,12480E-002	0,00000E+000	5,66019E-001	0,00000E+000	11	...........	1405,45
	576	115,4	5,48289E-001	-1,98624E-002	0,00000E+000	5,47979E-001	0,00000E+000	11	...........	1405,45
	585	117,2	5,30292E-001	-1,74707E-002	0,00000E+000	5,29989E-001	0,00000E+000	11	...........	1405,45
	594	119	5,12296E-001	-1,55285E-002	0,00000E+000	5,11998E-001	0,00000E+000	11	...........	1405,54
	603	120,8	4,94296E-001	-1,49788E-002	0,00000E+000	4,94008E-001	0,00000E+000	11	...........	1405,54
	612	122,6	4,76282E-001	-1,52224E-002	0,00000E+000	4,76018E-001	0,00000E+000	11	...........	1405,54
	621	124,4	4,58236E-001	-1,55114E-002	0,00000E+000	4,57978E-001	0,00000E+000	11	...........	1405,54
	630	126,2	4,40240E-001	-1,53804E-002	0,00000E+000	4,39988E-001	0,00000E+000	11	...........	1405,54
	639	128	4,22261E-001	-1,46266E-002	0,00000E+000	4,21998E-001	0,00000E+000	11	...........	1405,54
	648	129,8	4,04240E-001	-1,33489E-002	0,00000E+000	4,04008E-001	0,00000E+000	11	...........	1405,54
	657	131,6	3,86249E-001	-1,18912E-002	0,00000E+000	3,86018E-001	0,00000E+000	11	...........	1405,54
	666	133,4	3,68191E-001	-1,06492E-002	0,00000E+000	3,67977E-001	0,00000E+000	11	...........	1405,54
	675	135,2	3,50174E-001	-9,69800E-003	0,00000E+000	3,49987E-001	0,00000E+000	11	...........	1405,54
	684	137	3,32178E-001	-9,01691E-003	0,00000E+000	3,31997E-001	0,00000E+000	11	...........	1405,54
	693	138,8	3,14197E-001	-8,46837E-003	0,00000E+000	3,14007E-001	0,00000E+000	11	...........	1405,54
	702	140,6	2,96204E-001	-7,97468E-003	0,00000E+000	2,96017E-001	0,00000E+000	10	...........	1405,54
	711	142,4	2,78134E-001	-7,51217E-003	0,00000E+000	2,77977E-001	0,00000E+000	10	...........	1405,54
	720	144,2	2,60141E-001	-7,03996E-003	0,00000E+000	2,59987E-001	0,00000E+000	10	...........	1405,63
	729	146	2,42141E-001	-6,51270E-003	0,00000E+000	2,41997E-001	0,00000E+000	10	...........	1405,54
	738	147,8	2,24155E-001	-5,87301E-003	0,00000E+000	2,24007E-001	0,00000E+000	10	...........	1405,54
	747	149,6	2,06165E-001	-5,09413E-003	0,00000E+000	2,06016E-001	0,00000E+000	10	...........	1405,54
	756	151,4	1,88118E-001	-4,19175E-003	0,00000E+000	1,87976E-001	0,00000E+000	10	...........	1405,54
	765	153,2	1,70103E-001	-3,36423E-003	0,00000E+000	1,69986E-001	0,00000E+000	10	...........	1405,54
	774	155	1,52098E-001	-2,76509E-003	0,00000E+000	1,51996E-001	0,00000E+000	10	...........	1405,54
	783	156,8	1,34120E-001	-2,37139E-003	0,00000E+000	1,34006E-001	0,00000E+000	10	...........	1405,54
	792	158,6	1,16121E-001	-2,12122E-003	0,00000E+000	1,16016E-001	0,00000E+000	10	...........	1405,54
	801	160,4	9,80603E-002	-1,97044E-003	0,00000E+000	9,79758E-002	0,00000E+000	10	...........	1405,54
	810	162,2	8,00827E-002	-1,87968E-003	0,00000E+000	7,99856E-002	0,00000E+000	10	...........	1405,54
	819	164	6,20694E-002	-1,84581E-003	0,00000E+000	6,19955E-002	0,00000E+000	10	...........	1405,54
	828	165,8	4,40555E-002	-1,84248E-003	0,00000E+000	4,40054E-002	0,00000E+000	10	...........	1405,54
	837	167,6	2,60842E-002	-1,84199E-003	0,00000E+000	2,60153E-002	0,00000E+000	10	...........	1405,54
	846	169,4	8,03403E-003	-1,82938E-003	0,00000E+000	7,97516E-003	0,00000E+000	10	...........	1405,54
	850	170,2	4,44927E-005	-1,81933E-003	0,00000E+000	-2,04444E-005	0,00000E+000	10	...........	1405,63
CURVE2	TABLE
	Pt	T	Vf	Im	Vu	Sig	Ach	IERange	Over	Temp
	#	s	V vs. Ref.	A	V	V	V	#	bits	deg C
	851	170,4	2,04837E-003	-1,34653E-003	0,00000E+000	1,97846E-003	0,00000E+000	10	...........	1405,63
	860	172,2	2,00775E-002	-1,88331E-004	0,00000E+000	2,00185E-002	0,00000E+000	9	...........	1405,54
	869	174	3,80764E-002	3,06952E-004	0,00000E+000	3,80087E-002	0,00000E+000	9	...........	1405,37
	878	175,8	5,60643E-002	5,95871E-004	0,00000E+000	5,59988E-002	0,00000E+000	9	...........	1405,54
	887	177,6	7,40538E-002	7,63916E-004	0,00000E+000	7,39889E-002	0,00000E+000	9	...........	1405,63
	896	179,4	9,20698E-002	8,68221E-004	0,00000E+000	9,19791E-002	0,00000E+000	9	...........	1405,54
	905	181,2	1,10115E-001	9,27115E-004	0,00000E+000	1,10019E-001	0,00000E+000	10	...........	1405,54
	914	183	1,28121E-001	9,51117E-004	0,00000E+000	1,28009E-001	0,00000E+000	10	...........	1405,54
	923	184,8	1,46108E-001	9,63854E-004	0,00000E+000	1,45999E-001	0,00000E+000	10	...........	1405,54
	932	186,6	1,64117E-001	9,77027E-004	0,00000E+000	1,63990E-001	0,00000E+000	10	...........	1405,54
	941	188,4	1,82122E-001	9,84344E-004	0,00000E+000	1,81980E-001	0,00000E+000	10	...........	1405,54
	950	190,2	2,00162E-001	1,00198E-003	0,00000E+000	2,00020E-001	0,00000E+000	10	...........	1405,54
	959	192	2,18166E-001	1,02303E-003	0,00000E+000	2,18010E-001	0,00000E+000	10	...........	1405,63
	968	193,8	2,36135E-001	1,05739E-003	0,00000E+000	2,36000E-001	0,00000E+000	10	...........	1405,54
	977	195,6	2,54128E-001	1,10294E-003	0,00000E+000	2,53990E-001	0,00000E+000	10	...........	1405,54
	986	197,4	2,72140E-001	1,16041E-003	0,00000E+000	2,71980E-001	0,00000E+000	10	...........	1405,54
	995	199,2	2,90176E-001	1,24070E-003	0,00000E+000	2,90020E-001	0,00000E+000	10	...........	1405,54
	1004	201	3,08181E-001	1,33674E-003	0,00000E+000	3,08010E-001	0,00000E+000	10	...........	1405,54
	1013	202,8	3,26194E-001	1,45793E-003	0,00000E+000	3,26001E-001	0,00000E+000	10	...........	1405,63
	1022	204,6	3,44177E-001	1,59533E-003	0,00000E+000	3,43991E-001	0,00000E+000	10	...........	1405,63
	1031	206,4	3,62181E-001	1,75007E-003	0,00000E+000	3,61981E-001	0,00000E+000	10	...........	1405,63
	1040	208,2	3,80220E-001	1,91877E-003	0,00000E+000	3,80021E-001	0,00000E+000	10	...........	1405,63
	1049	210	3,98240E-001	2,10096E-003	0,00000E+000	3,98011E-001	0,00000E+000	10	...........	1405,63
	1058	211,8	4,16246E-001	2,19136E-003	0,00000E+000	4,16001E-001	0,00000E+000	10	...........	1405,63
	1067	213,6	4,34211E-001	2,11612E-003	0,00000E+000	4,33991E-001	0,00000E+000	10	...........	1405,63
	1076	215,4	4,52224E-001	2,01334E-003	0,00000E+000	4,51981E-001	0,00000E+000	10	...........	1405,63
	1085	217,2	4,70270E-001	2,01089E-003	0,00000E+000	4,70021E-001	0,00000E+000	10	...........	1405,63
	1094	219	4,88271E-001	2,28698E-003	0,00000E+000	4,88012E-001	0,00000E+000	10	...........	1405,63
	1103	220,8	5,06268E-001	3,09011E-003	0,00000E+000	5,06002E-001	0,00000E+000	10	...........	1405,63
	1112	222,6	5,24266E-001	4,56284E-003	0,00000E+000	5,23992E-001	0,00000E+000	10	...........	1405,63
	1121	224,4	5,42280E-001	6,60548E-003	0,00000E+000	5,41982E-001	0,00000E+000	10	...........	1405,63
	1130	226,2	5,60321E-001	8,86580E-003	0,00000E+000	5,60022E-001	0,00000E+000	10	...........	1405,72
	1139	228	5,78344E-001	1,09472E-002	0,00000E+000	5,78012E-001	0,00000E+000	11	...........	1405,63
	1148	229,8	5,96326E-001	1,24785E-002	0,00000E+000	5,96002E-001	0,00000E+000	11	...........	1405,63
	1157	231,6	6,14343E-001	1,32649E-002	0,00000E+000	6,13992E-001	0,00000E+000	11	...........	1405,63
	1166	233,4	6,32326E-001	1,36464E-002	0,00000E+000	6,31983E-001	0,00000E+000	11	...........	1405,63
	1175	235,2	6,50382E-001	1,44967E-002	0,00000E+000	6,50023E-001	0,00000E+000	11	...........	1405,63
	1184	237	6,68381E-001	1,61024E-002	0,00000E+000	6,68013E-001	0,00000E+000	11	...........	1405,63
	1193	238,8	6,86381E-001	1,83815E-002	0,00000E+000	6,86003E-001	0,00000E+000	11	...........	1405,63
	1202	240,6	7,04392E-001	2,09903E-002	0,00000E+000	7,03993E-001	0,00000E+000	11	...........	1405,63
	1211	242,4	7,22369E-001	2,36251E-002	0,00000E+000	7,21983E-001	0,00000E+000	11	...........	1405,63
[...]
	1809	362	2,18159E-001	1,01853E-003	0,00000E+000	2,18010E-001	0,00000E+000	10	...........	1405,80
	1818	363,8	2,36142E-001	1,06229E-003	0,00000E+000	2,36000E-001	0,00000E+000	10	...........	1405,80
	1827	365,6	2,54129E-001	1,12207E-003	0,00000E+000	2,53990E-001	0,00000E+000	10	...........	1405,80
	1836	367,4	2,72145E-001	1,21460E-003	0,00000E+000	2,71980E-001	0,00000E+000	10	...........	1405,80
	1845	369,2	2,90184E-001	1,34365E-003	0,00000E+000	2,90020E-001	0,00000E+000	10	...........	1405,80
	1854	371	3,08183E-001	1,51555E-003	0,00000E+000	3,08010E-001	0,00000E+000	10	...........	1405,80
	1863	372,8	3,26190E-001	1,72990E-003	0,00000E+000	3,26001E-001	0,00000E+000	10	...........	1405,80
	1872	374,6	3,44179E-001	1,98770E-003	0,00000E+000	3,43991E-001	0,00000E+000	10	...........	1405,80
	1881	376,4	3,62173E-001	2,25236E-003	0,00000E+000	3,61981E-001	0,00000E+000	10	...........	1405,80
	1890	378,2	3,80221E-001	2,50570E-003	0,00000E+000	3,80021E-001	0,00000E+000	10	...........	1405,80
	1899	380	3,98250E-001	2,74328E-003	0,00000E+000	3,98011E-001	0,00000E+000	10	...........	1405,80
	1908	381,8	4,16241E-001	2,87531E-003	0,00000E+000	4,16001E-001	0,00000E+000	10	...........	1405,80
	1917	383,6	4,34223E-001	2,81476E-003	0,00000E+000	4,33991E-001	0,00000E+000	10	...........	1405,80
	1926	385,4	4,52222E-001	2,67346E-003	0,00000E+000	4,51981E-001	0,00000E+000	10	...........	1405,80
	1935	387,2	4,70270E-001	2,60150E-003	0,00000E+000	4,70021E-001	0,00000E+000	10	...........	1405,80
	1944	389	4,88267E-001	2,82653E-003	0,00000E+000	4,88012E-001	0,00000E+000	10	...........	1405,80
	1953	390,8	5,06272E-001	3,65579E-003	0,00000E+000	5,06002E-001	0,00000E+000	10	...........	1405,80
	1962	392,6	5,24267E-001	5,26500E-003	0,00000E+000	5,23992E-001	0,00000E+000	10	...........	1405,80
	1971	394,4	5,42264E-001	7,56898E-003	0,00000E+000	5,41982E-001	0,00000E+000	10	...........	1405,80
	1980	396,2	5,60323E-001	1,02821E-002	0,00000E+000	5,60022E-001	0,00000E+000	11	...........	1405,89
	1989	398	5,78328E-001	1,29287E-002	0,00000E+000	5,78012E-001	0,00000E+000	11	...........	1405,80
	1998	399,8	5,96328E-001	1,50694E-002	0,00000E+000	5,96002E-001	0,00000E+000	11	...........	1405,80
	2007	401,6	6,14343E-001	1,62795E-002	0,00000E+000	6,13992E-001	0,00000E+000	11	...........	1405,80
	2016	403,4	6,32314E-001	1,65243E-002	0,00000E+000	6,31983E-001	0,00000E+000	11	...........	1405,80
	2025	405,2	6,50365E-001	1,66408E-002	0,00000E+000	6,50023E-001	0,00000E+000	11	...........	1405,80
	2034	407	6,68394E-001	1,75335E-002	0,00000E+000	6,68013E-001	0,00000E+000	11	...........	1405,80
	2043	408,8	6,86376E-001	1,93147E-002	0,00000E+000	6,86003E-001	0,00000E+000	11	...........	1405,80
	2052	410,6	7,04395E-001	2,16269E-002	0,00000E+000	7,03993E-001	0,00000E+000	11	...........	1405,80
	2061	412,4	7,22373E-001	2,40764E-002	0,00000E+000	7,21983E-001	0,00000E+000	11	...........	1405,80
	2070	414,2	7,40414E-001	2,63487E-002	0,00000E+000	7,40023E-001	0,00000E+000	11	...........	1405,80
	2079	416	7,58421E-001	2,81680E-002	0,00000E+000	7,58013E-001	0,00000E+000	11	...........	1405,80
	2088	417,8	7,76422E-001	2,92481E-002	0,00000E+000	7,76003E-001	0,00000E+000	11	...........	1405,80
	2097	419,6	7,94415E-001	2,94686E-002	0,00000E+000	7,93994E-001	0,00000E+000	11	...........	1405,80
	2106	421,4	8,12433E-001	2,87821E-002	0,00000E+000	8,11984E-001	0,00000E+000	11	...........	1405,80
	2115	423,2	8,30477E-001	2,74248E-002	0,00000E+000	8,30024E-001	0,00000E+000	11	...........	1405,80
	2124	425	8,48464E-001	2,58774E-002	0,00000E+000	8,48014E-001	0,00000E+000	11	...........	1405,80
	2133	426,8	8,34488E-001	1,95984E-002	0,00000E+000	8,34022E-001	0,00000E+000	11	...........	1405,80
	2142	428,6	8,16429E-001	1,52191E-002	0,00000E+000	8,15982E-001	0,00000E+000	11	...........	1405,80
	2151	430,4	7,98433E-001	1,18371E-002	0,00000E+000	7,97991E-001	0,00000E+000	11	...........	1405,80
	2160	432,2	7,80424E-001	8,89798E-003	0,00000E+000	7,80001E-001	0,00000E+000	11	...........	1405,80
	2169	434	7,62396E-001	6,10688E-003	0,00000E+000	7,62011E-001	0,00000E+000	10	...........	1405,89
	2178	435,8	7,44413E-001	3,29901E-003	0,00000E+000	7,44021E-001	0,00000E+000	10	...........	1405,89
	2187	437,6	7,26376E-001	3,60751E-004	0,00000E+000	7,25981E-001	0,00000E+000	9	...........	1405,89
	2196	439,4	7,08358E-001	-2,72547E-003	0,00000E+000	7,07991E-001	0,00000E+000	10	...........	1405,54
	2205	441,2	6,90358E-001	-6,00313E-003	0,00000E+000	6,90001E-001	0,00000E+000	10	...........	1405,80
	2214	443	6,72385E-001	-9,35611E-003	0,00000E+000	6,72011E-001	0,00000E+000	11	...........	1405,89
	2223	444,8	6,54384E-001	-1,24591E-002	0,00000E+000	6,54020E-001	0,00000E+000	11	...........	1405,89
	2232	446,6	6,36327E-001	-1,54757E-002	0,00000E+000	6,35980E-001	0,00000E+000	11	...........	1405,89
	2241	448,4	6,18332E-001	-1,80056E-002	0,00000E+000	6,17990E-001	0,00000E+000	11	...........	1405,80
	2250	450,2	6,00340E-001	-1,98372E-002	0,00000E+000	6,00000E-001	0,00000E+000	11	...........	1405,89
	2259	452	5,82338E-001	-2,06872E-002	0,00000E+000	5,82010E-001	0,00000E+000	11	...........	1405,89
	2268	453,8	5,64345E-001	-2,03780E-002	0,00000E+000	5,64020E-001	0,00000E+000	11	...........	1405,89
	2277	455,6	5,46289E-001	-1,89202E-002	0,00000E+000	5,45980E-001	0,00000E+000	11	...........	1405,89
	2286	457,4	5,28289E-001	-1,70826E-002	0,00000E+000	5,27990E-001	0,00000E+000	11	...........	1405,89
	2295	459,2	5,10286E-001	-1,62760E-002	0,00000E+000	5,10000E-001	0,00000E+000	11	...........	1405,89
	2304	461	4,92293E-001	-1,70349E-002	0,00000E+000	4,92009E-001	0,00000E+000	11	...........	1405,89
	2313	462,8	4,74283E-001	-1,86452E-002	0,00000E+000	4,74019E-001	0,00000E+000	11	...........	1405,89
	2322	464,6	4,56232E-001	-2,02987E-002	0,00000E+000	4,55979E-001	0,00000E+000	11	...........	1405,89
	2331	466,4	4,38237E-001	-2,13672E-002	0,00000E+000	4,37989E-001	0,00000E+000	11	...........	1405,89
	2340	468,2	4,20235E-001	-2,14230E-002	0,00000E+000	4,19999E-001	0,00000E+000	11	...........	1405,89
	2349	470	4,02237E-001	-2,02604E-002	0,00000E+000	4,02009E-001	0,00000E+000	11	...........	1405,89
	2358	471,8	3,84242E-001	-1,81004E-002	0,00000E+000	3,84019E-001	0,00000E+000	11	...........	1405,89
	2367	473,6	3,66185E-001	-1,56336E-002	0,00000E+000	3,65979E-001	0,00000E+000	11	...........	1405,89
	2376	475,4	3,48183E-001	-1,35672E-002	0,00000E+000	3,47988E-001	0,00000E+000	11	...........	1405,89
	2385	477,2	3,30179E-001	-1,21238E-002	0,00000E+000	3,29998E-001	0,00000E+000	11	...........	1405,89
	2394	479	3,12190E-001	-1,11012E-002	0,00000E+000	3,12008E-001	0,00000E+000	11	...........	1405,89
	2403	480,8	2,94193E-001	-1,02547E-002	0,00000E+000	2,94018E-001	0,00000E+000	11	...........	1405,89
	2412	482,6	2,76126E-001	-9,49706E-003	0,00000E+000	2,75978E-001	0,00000E+000	11	...........	1405,89
	2421	484,4	2,58134E-001	-8,81152E-003	0,00000E+000	2,57988E-001	0,00000E+000	11	...........	1405,89
	2430	486,2	2,40146E-001	-8,19984E-003	0,00000E+000	2,39998E-001	0,00000E+000	11	...........	1405,89
	2439	488	2,22159E-001	-7,63765E-003	0,00000E+000	2,22008E-001	0,00000E+000	10	...........	1405,98
	2448	489,8	2,04136E-001	-7,07606E-003	0,00000E+000	2,04018E-001	0,00000E+000	10	...........	1405,98
	2457	491,6	1,86123E-001	-6,45499E-003	0,00000E+000	1,85977E-001	0,00000E+000	10	...........	1405,98
	2466	493,4	1,68111E-001	-5,67245E-003	0,00000E+000	1,67987E-001	0,00000E+000	10	...........	1405,89
	2475	495,2	1,50099E-001	-4,70620E-003	0,00000E+000	1,49997E-001	0,00000E+000	10	...........	1405,89
	2484	497	1,32123E-001	-3,76749E-003	0,00000E+000	1,32007E-001	0,00000E+000	10	...........	1405,89
	2493	498,8	1,14112E-001	-3,06631E-003	0,00000E+000	1,14017E-001	0,00000E+000	10	...........	1405,89
	2502	500,6	9,60552E-002	-2,60328E-003	0,00000E+000	9,59769E-002	0,00000E+000	10	...........	1405,89
	2511	502,4	7,80692E-002	-2,31265E-003	0,00000E+000	7,79867E-002	0,00000E+000	10	...........	1405,89
	2520	504,2	6,00689E-002	-2,14193E-003	0,00000E+000	5,99966E-002	0,00000E+000	10	...........	1405,89
	2529	506	4,20722E-002	-2,05368E-003	0,00000E+000	4,20065E-002	0,00000E+000	10	...........	1405,89
	2538	507,8	2,40614E-002	-2,00893E-003	0,00000E+000	2,40164E-002	0,00000E+000	10	...........	1405,89
	2547	509,6	6,03576E-003	-1,97980E-003	0,00000E+000	5,97626E-003	0,00000E+000	10	...........	1405,89
	2550	510,2	4,45427E-005	-1,96782E-003	0,00000E+000	-2,04444E-005	0,00000E+000	10	...........	1405,89
CURVE4	TABLE
	Pt	T	Vf	Im	Vu	Sig	Ach	IERange	Over	Temp
	#	s	V vs. Ref.	A	V	V	V	#	bits	deg C
	2551	510,4	4,80441E-005	-1,72499E-003	0,00000E+000	-2,04444E-005	0,00000E+000	10	...........	1405,89