File: docs/utils/cv_sample.DTA
EXPLAIN
TAG	CV
TITLE	LABEL	Cyclic Voltammetry	Test &Identifier
DATE	LABEL	7/3/2023	Date
TIME	LABEL	12:42:38	Time
NOTES	NOTES	1	&Notes...

PSTAT	PSTAT	IFC1010-29239	Potentiostat
VINIT	POTEN	-1,00000E-001	F	Initial &E (V)
VLIMIT1	POTEN	-8,00000E-001	F	Scan Limit &1 (V)
VLIMIT2	POTEN	-1,00000E-001	F	Scan Limit &2 (V)
VFINAL	POTEN	-1,00000E-001	F	Final &E (V)
SCANRATE	QUANT	2,00000E+000	&Scan Rate (mV/s)
STEPSIZE	QUANT	2,00000E+000	St&ep Size (mV)
CYCLES	IQUANT	3	C&ycles (#)
IMODE	SELECTOR	0	I/E Range &Mode
IRANGE	QUANT	1,00000E+003	&Max Current (mA)
AREA	QUANT	1,00000E+000	Electrode &Area (cm^2)
ELECTRODETYPE	SELECTOR	0	Electrode Type
STRIPPING	TOGGLE	F	Used for Stripping
POLARITY	TOGGLE	F	Signal Polarity
CONDIT	TWOPARAM	F	1,50000E+001	0,00000E+000	Conditionin&g	Time(s)	E(V)
DELAY	TWOPARAM	T	5,00000E+000	0,00000E+000	Init. De&lay	Time(s)	Stab.(mV/s)
EQDELAY	QUANT	0,00000E+000	Equil. &Time (s)
IRCOMP	SELECTOR	0	IRCom&p
PFCOR	QUANT	5,00000E+001	PF Corr. (ohm)
SAMPLINGMODE	SELECTOR	1	Sampling &Mode
OCVCURVE	TABLE	20
	Pt	T	Vf	Vm	Ach	Over	Temp
	#	s	V vs. Ref.	V	V	bits	deg C
	0	0,25	-4,49566E-001	-4,49566E-001	0,00000E+000	...........	1407,99
	1	0,5	-4,49566E-001	-4,49547E-001	0,00000E+000	...........	1407,99
	2	0,75	-4,49563E-001	-4,49501E-001	0,00000E+000	...........	1407,99
	3	1	-4,49554E-001	-4,49470E-001	0,00000E+000	...........	1407,99
	4	1,25	-4,49534E-001	-4,49434E-001	0,00000E+000	...........	1407,99
	5	1,5	-4,49506E-001	-4,49408E-001	0,00000E+000	...........	1407,99
	6	1,75	-4,49474E-001	-4,49373E-001	0,00000E+000	...........	1407,47
	7	2	-4,49441E-001	-4,49327E-001	0,00000E+000	...........	1407,47
	8	2,25	-4,49406E-001	-4,49294E-001	0,00000E+000	...........	1407,47
	9	2,5	-4,49371E-001	-4,49258E-001	0,00000E+000	...........	1407,47
	10	2,75	-4,49334E-001	-4,49232E-001	0,00000E+000	...........	1407,47
	11	3	-4,49298E-001	-4,49198E-001	0,00000E+000	...........	1407,47
	12	3,25	-4,49264E-001	-4,49153E-001	0,00000E+000	...........	1407,47
	13	3,5	-4,49231E-001	-4,49137E-001	0,00000E+000	...........	1407,47
	14	3,75	-4,49197E-001	-4,49096E-001	0,00000E+000	...........	1407,91
	15	4	-4,49165E-001	-4,49054E-001	0,00000E+000	...........	1407,91
	16	4,25	-4,49131E-001	-4,49026E-001	0,00000E+000	...........	1407,91
	17	4,5	-4,49097E-001	-4,49007E-001	0,00000E+000	...........	1407,91
	18	4,75	-4,49064E-001	-4,48965E-001	0,00000E+000	...........	1407,56
	19	5	-4,49032E-001	-4,48929E-001	0,00000E+000	...........	1407,56
EOC	QUANT	-0,4490322	Open Circuit (V)
PSTATMODEL	IQUANT	64	Pstat Model
PSTATSECTION	LABEL	IFC1010-29239	Pstat Section
PSTATSERIALNO	LABEL	29239	Pstat Serial Number
CTRLMODE	IQUANT	1	Control Mode
ELECTROMETER	IQUANT	0	RE=0 or CS=1
IESTAB	IQUANT	2	I/E Stability
CASPEED	IQUANT	4	Control Amp Speed
CONVENTION	IQUANT	1	Current Convention
ICHRANGE	IQUANT	2	Ich Range
ICHRANGEMODE	TOGGLE	F	Ich Auto Range
ICHOFFSETENABLE	TOGGLE	F	Ich Offset Enable
ICHOFFSET	QUANT	0	Ich Offset (V)
ICHFILTER	IQUANT	4	Ich Filter
VCHRANGE	IQUANT	2	Vch Range
VCHRANGEMODE	TOGGLE	F	Vch Auto Range
VCHOFFSETENABLE	TOGGLE	F	Vch Offset Enable
VCHOFFSET	QUANT	0	Vch Offset (V)
VCHFILTER	IQUANT	4	Vch Filter
IERANGELOWERLIMIT	IQUANT	4	I/E Range Lower Limit
IERANGEMODE	TOGGLE	T	I/E AutoRange
IERANGE	IQUANT	12	I/E Range
ACHSELECT	IQUANT	0	Ach Select
ACHRANGE	IQUANT	2	Ach Range
ACHOFFSETENABLE	TOGGLE	F	Ach Offset Enable
ACHOFFSET	QUANT	0	Ach Offset (V)
ACHFILTER	IQUANT	1	Ach Filter
SENSECABLEID	IQUANT	13	Sense Cable ID
PWRCABLEID	IQUANT	13	Power Cable ID
DCCALDATE	LABEL	2/14/2023	DC Calibration Date
ACCALDATE	LABEL	7/8/2021	AC Calibration Date
FRAMEWORKVERSION	LABEL	7.8.4	Framework Version
INSTRUMENTVERSION	LABEL	4.42	Instrument Version
CURVE1	TABLE
	Pt	T	Vf	Im	Vu	Sig	Ach	IERange	Over	Temp
	#	s	V vs. Ref.	A	V	V	V	#	bits	deg C
	0	1	-1,00084E-001	7,95492E-005	0,00000E+000	-9,99971E-002	0,00000E+000	12	...........	1407,99
	7	8	-1,14057E-001	2,15218E-005	0,00000E+000	-1,14001E-001	0,00000E+000	8	...........	1407,56
	14	15	-1,28074E-001	1,57081E-005	0,00000E+000	-1,28005E-001	0,00000E+000	8	...........	1407,47
	21	22	-1,42067E-001	1,28393E-005	0,00000E+000	-1,41996E-001	0,00000E+000	8	...........	1407,47
	28	29	-1,56080E-001	1,10505E-005	0,00000E+000	-1,56000E-001	0,00000E+000	8	...........	1407,47
	35	36	-1,70101E-001	9,78570E-006	0,00000E+000	-1,70003E-001	0,00000E+000	8	...........	1407,56
	42	43	-1,84085E-001	8,82852E-006	0,00000E+000	-1,83995E-001	0,00000E+000	8	...........	1407,56
	49	50	-1,98100E-001	8,06138E-006	0,00000E+000	-1,97998E-001	0,00000E+000	8	...........	1407,47
	56	57	-2,12111E-001	7,42219E-006	0,00000E+000	-2,12002E-001	0,00000E+000	7	...........	1407,56
	63	64	-2,26127E-001	6,88989E-006	0,00000E+000	-2,26006E-001	0,00000E+000	7	...........	1407,56
	70	71	-2,40117E-001	6,43058E-006	0,00000E+000	-2,39997E-001	0,00000E+000	7	...........	1407,56
	77	78	-2,54128E-001	6,02614E-006	0,00000E+000	-2,54001E-001	0,00000E+000	7	...........	1407,56
	84	85	-2,68133E-001	5,66122E-006	0,00000E+000	-2,68005E-001	0,00000E+000	7	...........	1407,56
	91	92	-2,82137E-001	5,32034E-006	0,00000E+000	-2,81996E-001	0,00000E+000	7	...........	1407,56
	98	99	-2,96156E-001	4,98777E-006	0,00000E+000	-2,96000E-001	0,00000E+000	7	...........	1407,56
	105	106	-3,10162E-001	4,65142E-006	0,00000E+000	-3,10003E-001	0,00000E+000	7	...........	1407,56
	112	113	-3,24158E-001	4,28362E-006	0,00000E+000	-3,23995E-001	0,00000E+000	7	...........	1407,56
	119	120	-3,38170E-001	3,84738E-006	0,00000E+000	-3,37998E-001	0,00000E+000	7	...........	1407,56
	126	127	-3,52175E-001	3,28924E-006	0,00000E+000	-3,52002E-001	0,00000E+000	7	...........	1407,56
	133	134	-3,66190E-001	2,50848E-006	0,00000E+000	-3,66006E-001	0,00000E+000	7	...........	1407,56
	140	141	-3,80181E-001	1,38551E-006	0,00000E+000	-3,79997E-001	0,00000E+000	7	...........	1407,56
	147	148	-3,94177E-001	-1,09314E-007	0,00000E+000	-3,94001E-001	0,00000E+000	5	....ih..i..	1407,47
	154	155	-4,08201E-001	-2,80305E-006	0,00000E+000	-4,08005E-001	0,00000E+000	7	...........	1407,56
	161	162	-4,22189E-001	-6,36950E-006	0,00000E+000	-4,21996E-001	0,00000E+000	7	...........	1407,56
	168	169	-4,36225E-001	-1,13207E-005	0,00000E+000	-4,36000E-001	0,00000E+000	8	...........	1407,47
	175	176	-4,50230E-001	-1,78046E-005	0,00000E+000	-4,50003E-001	0,00000E+000	8	...........	1407,56
	182	183	-4,64226E-001	-2,58321E-005	0,00000E+000	-4,63995E-001	0,00000E+000	8	...........	1407,47
	189	190	-4,78238E-001	-3,54041E-005	0,00000E+000	-4,77998E-001	0,00000E+000	8	...........	1407,56
	196	197	-4,92233E-001	-4,61502E-005	0,00000E+000	-4,92002E-001	0,00000E+000	8	...........	1407,47
	203	204	-5,06256E-001	-5,71244E-005	0,00000E+000	-5,06006E-001	0,00000E+000	8	...........	1407,56
	210	211	-5,20248E-001	-6,67451E-005	0,00000E+000	-5,19997E-001	0,00000E+000	8	...........	1407,56
	217	218	-5,34255E-001	-7,33889E-005	0,00000E+000	-5,34001E-001	0,00000E+000	8	...........	1407,56
	224	225	-5,48257E-001	-7,60876E-005	0,00000E+000	-5,48005E-001	0,00000E+000	8	...........	1407,56
	231	232	-5,62252E-001	-7,54525E-005	0,00000E+000	-5,61996E-001	0,00000E+000	8	...........	1407,56
	238	239	-5,76258E-001	-7,35274E-005	0,00000E+000	-5,76000E-001	0,00000E+000	8	...........	1407,56
	245	246	-5,90279E-001	-7,18899E-005	0,00000E+000	-5,90003E-001	0,00000E+000	8	...........	1407,56
	252	253	-6,04258E-001	-7,07817E-005	0,00000E+000	-6,03995E-001	0,00000E+000	8	...........	1407,56
	259	260	-6,18279E-001	-6,99999E-005	0,00000E+000	-6,17998E-001	0,00000E+000	8	...........	1407,56
	266	267	-6,32265E-001	-6,93850E-005	0,00000E+000	-6,32002E-001	0,00000E+000	8	...........	1407,56
	273	274	-6,46289E-001	-6,87441E-005	0,00000E+000	-6,46006E-001	0,00000E+000	8	...........	1407,56
	280	281	-6,60278E-001	-6,77737E-005	0,00000E+000	-6,59997E-001	0,00000E+000	8	...........	1407,56
	287	288	-6,74297E-001	-6,63864E-005	0,00000E+000	-6,74001E-001	0,00000E+000	8	...........	1407,56
	294	295	-6,88301E-001	-6,47472E-005	0,00000E+000	-6,88005E-001	0,00000E+000	8	...........	1407,64
	301	302	-7,02298E-001	-6,30707E-005	0,00000E+000	-7,01996E-001	0,00000E+000	8	...........	1407,56
	308	309	-7,16296E-001	-6,14066E-005	0,00000E+000	-7,16000E-001	0,00000E+000	8	...........	1407,56
	315	316	-7,30326E-001	-5,97807E-005	0,00000E+000	-7,30003E-001	0,00000E+000	8	...........	1407,56
	322	323	-7,44323E-001	-5,82189E-005	0,00000E+000	-7,43995E-001	0,00000E+000	8	...........	1407,56
	329	330	-7,58332E-001	-5,67302E-005	0,00000E+000	-7,57998E-001	0,00000E+000	8	...........	1407,56
	336	337	-7,72337E-001	-5,53093E-005	0,00000E+000	-7,72002E-001	0,00000E+000	8	...........	1407,56
	343	344	-7,86335E-001	-5,39396E-005	0,00000E+000	-7,86006E-001	0,00000E+000	8	...........	1407,56
	350	351	-8,00338E-001	-5,26112E-005	0,00000E+000	-7,99997E-001	0,00000E+000	8	...........	1407,56
	357	358	-7,86343E-001	-5,05290E-005	0,00000E+000	-7,86006E-001	0,00000E+000	8	...........	1407,56
	364	365	-7,72333E-001	-4,87842E-005	0,00000E+000	-7,72002E-001	0,00000E+000	8	...........	1407,56
	371	372	-7,58331E-001	-4,71480E-005	0,00000E+000	-7,57998E-001	0,00000E+000	8	...........	1407,56
	378	379	-7,44321E-001	-4,55920E-005	0,00000E+000	-7,43995E-001	0,00000E+000	8	...........	1407,56
	385	386	-7,30322E-001	-4,40597E-005	0,00000E+000	-7,30003E-001	0,00000E+000	8	...........	1407,56
	392	393	-7,16298E-001	-4,25168E-005	0,00000E+000	-7,16000E-001	0,00000E+000	8	...........	1407,56
	399	400	-7,02292E-001	-4,09069E-005	0,00000E+000	-7,01996E-001	0,00000E+000	8	...........	1407,56
	406	407	-6,88308E-001	-3,92368E-005	0,00000E+000	-6,88005E-001	0,00000E+000	8	...........	1407,56
	413	414	-6,74292E-001	-3,72842E-005	0,00000E+000	-6,74001E-001	0,00000E+000	8	...........	1407,56
	420	421	-6,60288E-001	-3,50210E-005	0,00000E+000	-6,59997E-001	0,00000E+000	8	...........	1407,56
	427	428	-6,46285E-001	-3,24603E-005	0,00000E+000	-6,46006E-001	0,00000E+000	8	...........	1407,56
	434	435	-6,32272E-001	-2,99014E-005	0,00000E+000	-6,32002E-001	0,00000E+000	8	...........	1407,56
	441	442	-6,18278E-001	-2,75207E-005	0,00000E+000	-6,17998E-001	0,00000E+000	8	...........	1407,56
	448	449	-6,04274E-001	-2,52537E-005	0,00000E+000	-6,03995E-001	0,00000E+000	8	...........	1407,56
	455	456	-5,90273E-001	-2,28761E-005	0,00000E+000	-5,90003E-001	0,00000E+000	8	...........	1407,56
	462	463	-5,76262E-001	-1,97662E-005	0,00000E+000	-5,76000E-001	0,00000E+000	8	...........	1407,56
	469	470	-5,62254E-001	-1,53422E-005	0,00000E+000	-5,61996E-001	0,00000E+000	8	...........	1407,56
	476	477	-5,48256E-001	-8,60496E-006	0,00000E+000	-5,48005E-001	0,00000E+000	8	...........	1407,56
	483	484	-5,34281E-001	1,05102E-006	0,00000E+000	-5,34001E-001	0,00000E+000	6	....ih..i..	1407,56
	490	491	-5,20246E-001	1,34360E-005	0,00000E+000	-5,19997E-001	0,00000E+000	8	...........	1407,47
	497	498	-5,06252E-001	2,55917E-005	0,00000E+000	-5,06006E-001	0,00000E+000	8	...........	1407,56
	504	505	-4,92238E-001	3,51363E-005	0,00000E+000	-4,92002E-001	0,00000E+000	8	...........	1407,56
	511	512	-4,78234E-001	4,08581E-005	0,00000E+000	-4,77998E-001	0,00000E+000	8	...........	1407,56
	518	519	-4,64223E-001	4,34062E-005	0,00000E+000	-4,63995E-001	0,00000E+000	8	...........	1407,56
	525	526	-4,50233E-001	4,35048E-005	0,00000E+000	-4,50003E-001	0,00000E+000	8	...........	1407,56
	532	533	-4,36224E-001	4,20226E-005	0,00000E+000	-4,36000E-001	0,00000E+000	8	...........	1407,64
	539	540	-4,22195E-001	3,96249E-005	0,00000E+000	-4,21996E-001	0,00000E+000	8	...........	1407,56
	546	547	-4,08202E-001	3,67420E-005	0,00000E+000	-4,08005E-001	0,00000E+000	8	...........	1407,56
	553	554	-3,94198E-001	3,37609E-005	0,00000E+000	-3,94001E-001	0,00000E+000	8	...........	1407,56
	560	561	-3,80169E-001	3,09640E-005	0,00000E+000	-3,79997E-001	0,00000E+000	8	...........	1407,56
	567	568	-3,66187E-001	2,84395E-005	0,00000E+000	-3,66006E-001	0,00000E+000	8	...........	1407,56
	574	575	-3,52178E-001	2,62349E-005	0,00000E+000	-3,52002E-001	0,00000E+000	8	...........	1407,56
	581	582	-3,38166E-001	2,43313E-005	0,00000E+000	-3,37998E-001	0,00000E+000	8	...........	1407,56
	588	589	-3,24157E-001	2,26887E-005	0,00000E+000	-3,23995E-001	0,00000E+000	8	...........	1407,56
	595	596	-3,10156E-001	2,12764E-005	0,00000E+000	-3,10003E-001	0,00000E+000	8	...........	1407,56
	602	603	-2,96145E-001	2,00497E-005	0,00000E+000	-2,96000E-001	0,00000E+000	8	...........	1407,56
	609	610	-2,82148E-001	1,89820E-005	0,00000E+000	-2,81996E-001	0,00000E+000	8	...........	1407,56
	616	617	-2,68128E-001	1,80457E-005	0,00000E+000	-2,68005E-001	0,00000E+000	8	...........	1407,56
	623	624	-2,54118E-001	1,72245E-005	0,00000E+000	-2,54001E-001	0,00000E+000	8	...........	1407,56
	630	631	-2,40126E-001	1,64999E-005	0,00000E+000	-2,39997E-001	0,00000E+000	8	...........	1407,56
	637	638	-2,26114E-001	1,58586E-005	0,00000E+000	-2,26006E-001	0,00000E+000	8	...........	1407,56
	644	645	-2,12122E-001	1,52914E-005	0,00000E+000	-2,12002E-001	0,00000E+000	8	...........	1407,56
	651	652	-1,98092E-001	1,47930E-005	0,00000E+000	-1,97998E-001	0,00000E+000	8	...........	1407,56
	658	659	-1,84086E-001	1,43442E-005	0,00000E+000	-1,83995E-001	0,00000E+000	8	...........	1407,56
	665	666	-1,70105E-001	1,39492E-005	0,00000E+000	-1,70003E-001	0,00000E+000	8	...........	1407,56
	672	673	-1,56074E-001	1,35946E-005	0,00000E+000	-1,56000E-001	0,00000E+000	8	...........	1407,56
	679	680	-1,42079E-001	1,32780E-005	0,00000E+000	-1,41996E-001	0,00000E+000	8	...........	1407,56
	686	687	-1,28073E-001	1,30045E-005	0,00000E+000	-1,28005E-001	0,00000E+000	8	...........	1407,56
	693	694	-1,14054E-001	1,27541E-005	0,00000E+000	-1,14001E-001	0,00000E+000	8	...........	1407,56
	700	701	-1,00039E-001	1,25338E-005	0,00000E+000	-9,99971E-002	0,00000E+000	8	...........	1407,56
CURVE2	TABLE
	Pt	T	Vf	Im	Vu	Sig	Ach	IERange	Over	Temp
	#	s	V vs. Ref.	A	V	V	V	#	bits	deg C
	701	702	-1,02050E-001	1,24243E-005	0,00000E+000	-1,01996E-001	0,00000E+000	8	...........	1407,56
	708	709	-1,16071E-001	1,18636E-005	0,00000E+000	-1,16000E-001	0,00000E+000	8	...........	1407,56
	715	716	-1,30076E-001	1,14274E-005	0,00000E+000	-1,30003E-001	0,00000E+000	8	...........	1407,56
	722	723	-1,44072E-001	1,10362E-005	0,00000E+000	-1,43995E-001	0,00000E+000	8	...........	1407,56
	729	730	-1,58093E-001	1,06668E-005	0,00000E+000	-1,57998E-001	0,00000E+000	8	...........	1407,56
	736	737	-1,72093E-001	1,03114E-005	0,00000E+000	-1,72002E-001	0,00000E+000	8	...........	1407,56
	743	744	-1,86123E-001	9,97050E-006	0,00000E+000	-1,86006E-001	0,00000E+000	8	...........	1407,56
	750	751	-2,00100E-001	9,63372E-006	0,00000E+000	-1,99997E-001	0,00000E+000	8	...........	1407,56
	757	758	-2,14109E-001	9,30751E-006	0,00000E+000	-2,14001E-001	0,00000E+000	8	...........	1407,56
	764	765	-2,28111E-001	8,99406E-006	0,00000E+000	-2,28005E-001	0,00000E+000	8	...........	1407,56
	771	772	-2,42110E-001	8,68613E-006	0,00000E+000	-2,41996E-001	0,00000E+000	8	...........	1407,56
	778	779	-2,56134E-001	8,38937E-006	0,00000E+000	-2,56000E-001	0,00000E+000	8	...........	1407,56
	785	786	-2,70144E-001	8,09386E-006	0,00000E+000	-2,70003E-001	0,00000E+000	8	...........	1407,56
	792	793	-2,84139E-001	7,78713E-006	0,00000E+000	-2,83995E-001	0,00000E+000	7	...........	1407,64
	799	800	-2,98146E-001	7,47754E-006	0,00000E+000	-2,97998E-001	0,00000E+000	7	...........	1407,56
	806	807	-3,12166E-001	7,14519E-006	0,00000E+000	-3,12002E-001	0,00000E+000	7	...........	1407,56
	813	814	-3,26169E-001	6,76399E-006	0,00000E+000	-3,26006E-001	0,00000E+000	7	...........	1407,56
	820	821	-3,40176E-001	6,29825E-006	0,00000E+000	-3,39997E-001	0,00000E+000	7	...........	1407,56
	827	828	-3,54169E-001	5,68842E-006	0,00000E+000	-3,54001E-001	0,00000E+000	7	...........	1407,56
	834	835	-3,68191E-001	4,84099E-006	0,00000E+000	-3,68005E-001	0,00000E+000	7	...........	1407,56
	841	842	-3,82172E-001	3,61131E-006	0,00000E+000	-3,81996E-001	0,00000E+000	7	...........	1407,56
	848	849	-3,96190E-001	1,79762E-006	0,00000E+000	-3,96000E-001	0,00000E+000	7	...........	1407,56
	855	856	-4,10201E-001	-8,80804E-007	0,00000E+000	-4,10003E-001	0,00000E+000	6	...........	1407,29
	862	863	-4,24201E-001	-4,66342E-006	0,00000E+000	-4,23995E-001	0,00000E+000	7	...........	1407,56
	869	870	-4,38221E-001	-9,79699E-006	0,00000E+000	-4,37998E-001	0,00000E+000	8	...........	1407,47
	876	877	-4,52218E-001	-1,65464E-005	0,00000E+000	-4,52002E-001	0,00000E+000	8	...........	1407,56
	883	884	-4,66222E-001	-2,48872E-005	0,00000E+000	-4,66006E-001	0,00000E+000	8	...........	1407,56
	890	891	-4,80233E-001	-3,46964E-005	0,00000E+000	-4,79997E-001	0,00000E+000	8	...........	1407,56
	897	898	-4,94241E-001	-4,55646E-005	0,00000E+000	-4,94001E-001	0,00000E+000	8	...........	1407,56
	904	905	-5,08230E-001	-5,64958E-005	0,00000E+000	-5,08005E-001	0,00000E+000	8	...........	1407,56
	911	912	-5,22229E-001	-6,58443E-005	0,00000E+000	-5,21996E-001	0,00000E+000	8	...........	1407,56
	918	919	-5,36241E-001	-7,17738E-005	0,00000E+000	-5,36000E-001	0,00000E+000	8	...........	1407,56
	925	926	-5,50247E-001	-7,36001E-005	0,00000E+000	-5,50003E-001	0,00000E+000	8	...........	1407,56
	932	933	-5,64253E-001	-7,23322E-005	0,00000E+000	-5,63995E-001	0,00000E+000	8	...........	1407,64
	939	940	-5,78260E-001	-7,02258E-005	0,00000E+000	-5,77998E-001	0,00000E+000	8	...........	1407,56
	946	947	-5,92278E-001	-6,86217E-005	0,00000E+000	-5,92002E-001	0,00000E+000	8	...........	1407,56
[...]
	1441	1442	-1,82099E-001	1,13258E-005	0,00000E+000	-1,81996E-001	0,00000E+000	8	...........	1407,56
	1449	1450	-1,98097E-001	1,09491E-005	0,00000E+000	-1,97998E-001	0,00000E+000	8	...........	1407,56
	1457	1458	-2,14109E-001	1,05882E-005	0,00000E+000	-2,14001E-001	0,00000E+000	8	...........	1407,56
	1465	1466	-2,30109E-001	1,02383E-005	0,00000E+000	-2,30003E-001	0,00000E+000	8	...........	1407,56
	1473	1474	-2,46121E-001	9,90046E-006	0,00000E+000	-2,46006E-001	0,00000E+000	8	...........	1407,56
	1481	1482	-2,62123E-001	9,56565E-006	0,00000E+000	-2,61996E-001	0,00000E+000	8	...........	1407,56
	1489	1490	-2,78133E-001	9,23486E-006	0,00000E+000	-2,77998E-001	0,00000E+000	8	...........	1407,56
	1497	1498	-2,94142E-001	8,89297E-006	0,00000E+000	-2,94001E-001	0,00000E+000	8	...........	1407,56
	1505	1506	-3,10168E-001	8,52676E-006	0,00000E+000	-3,10003E-001	0,00000E+000	8	...........	1407,56
	1513	1514	-3,26162E-001	8,10479E-006	0,00000E+000	-3,26006E-001	0,00000E+000	8	...........	1407,56
	1521	1522	-3,42171E-001	7,56517E-006	0,00000E+000	-3,41996E-001	0,00000E+000	7	...........	1407,64
	1529	1530	-3,58179E-001	6,83769E-006	0,00000E+000	-3,57998E-001	0,00000E+000	7	...........	1407,56
	1537	1538	-3,74189E-001	5,74908E-006	0,00000E+000	-3,74001E-001	0,00000E+000	7	...........	1407,56
	1545	1546	-3,90219E-001	4,05781E-006	0,00000E+000	-3,90003E-001	0,00000E+000	7	...........	1407,56
	1553	1554	-4,06197E-001	1,42708E-006	0,00000E+000	-4,06006E-001	0,00000E+000	7	...........	1407,56
	1561	1562	-4,22200E-001	-2,57123E-006	0,00000E+000	-4,21996E-001	0,00000E+000	7	...........	1407,56
	1569	1570	-4,38215E-001	-8,32330E-006	0,00000E+000	-4,37998E-001	0,00000E+000	7	...........	1407,56
	1577	1578	-4,54223E-001	-1,61265E-005	0,00000E+000	-4,54001E-001	0,00000E+000	8	...........	1407,56
	1585	1586	-4,70233E-001	-2,59884E-005	0,00000E+000	-4,70003E-001	0,00000E+000	8	...........	1407,56
	1593	1594	-4,86231E-001	-3,76989E-005	0,00000E+000	-4,86006E-001	0,00000E+000	8	...........	1407,56
	1601	1602	-5,02236E-001	-5,03073E-005	0,00000E+000	-5,01996E-001	0,00000E+000	8	...........	1407,56
	1609	1610	-5,18236E-001	-6,18642E-005	0,00000E+000	-5,17998E-001	0,00000E+000	8	...........	1407,56
	1617	1618	-5,34253E-001	-6,94321E-005	0,00000E+000	-5,34001E-001	0,00000E+000	8	...........	1407,56
	1625	1626	-5,50251E-001	-7,16639E-005	0,00000E+000	-5,50003E-001	0,00000E+000	8	...........	1407,56
	1633	1634	-5,66266E-001	-7,00091E-005	0,00000E+000	-5,66006E-001	0,00000E+000	8	...........	1407,56
	1641	1642	-5,82265E-001	-6,77103E-005	0,00000E+000	-5,81996E-001	0,00000E+000	8	...........	1407,56
	1649	1650	-5,98268E-001	-6,61912E-005	0,00000E+000	-5,97998E-001	0,00000E+000	8	...........	1407,56
	1657	1658	-6,14274E-001	-6,54373E-005	0,00000E+000	-6,14001E-001	0,00000E+000	8	...........	1407,56
	1665	1666	-6,30288E-001	-6,49880E-005	0,00000E+000	-6,30003E-001	0,00000E+000	8	...........	1407,56
	1673	1674	-6,46290E-001	-6,44222E-005	0,00000E+000	-6,46006E-001	0,00000E+000	8	...........	1407,56
	1681	1682	-6,62285E-001	-6,31675E-005	0,00000E+000	-6,61996E-001	0,00000E+000	8	...........	1407,56
	1689	1690	-6,78290E-001	-6,11803E-005	0,00000E+000	-6,77998E-001	0,00000E+000	8	...........	1407,56
	1697	1698	-6,94312E-001	-5,88782E-005	0,00000E+000	-6,94001E-001	0,00000E+000	8	...........	1407,56
	1705	1706	-7,10311E-001	-5,66443E-005	0,00000E+000	-7,10003E-001	0,00000E+000	8	...........	1407,56
	1713	1714	-7,26315E-001	-5,45905E-005	0,00000E+000	-7,26006E-001	0,00000E+000	8	...........	1407,56
	1721	1722	-7,42302E-001	-5,27147E-005	0,00000E+000	-7,41996E-001	0,00000E+000	8	...........	1407,56
	1729	1730	-7,58333E-001	-5,10284E-005	0,00000E+000	-7,57998E-001	0,00000E+000	8	...........	1407,56
	1737	1738	-7,74327E-001	-4,95067E-005	0,00000E+000	-7,74001E-001	0,00000E+000	8	...........	1407,56
	1745	1746	-7,90341E-001	-4,81037E-005	0,00000E+000	-7,90003E-001	0,00000E+000	8	...........	1407,56
	1753	1754	-7,94348E-001	-4,64308E-005	0,00000E+000	-7,94001E-001	0,00000E+000	8	...........	1407,56
	1761	1762	-7,78340E-001	-4,46637E-005	0,00000E+000	-7,77998E-001	0,00000E+000	8	...........	1407,56
	1769	1770	-7,62332E-001	-4,31383E-005	0,00000E+000	-7,61996E-001	0,00000E+000	8	...........	1407,56
	1777	1778	-7,46328E-001	-4,17546E-005	0,00000E+000	-7,46006E-001	0,00000E+000	8	...........	1407,56
	1785	1786	-7,30327E-001	-4,04345E-005	0,00000E+000	-7,30003E-001	0,00000E+000	8	...........	1407,47
	1793	1794	-7,14297E-001	-3,90831E-005	0,00000E+000	-7,14001E-001	0,00000E+000	8	...........	1407,56
	1801	1802	-6,98307E-001	-3,75956E-005	0,00000E+000	-6,97998E-001	0,00000E+000	8	...........	1407,56
	1809	1810	-6,82286E-001	-3,58639E-005	0,00000E+000	-6,81996E-001	0,00000E+000	8	...........	1407,56
	1817	1818	-6,66299E-001	-3,37616E-005	0,00000E+000	-6,66006E-001	0,00000E+000	8	...........	1407,47
	1825	1826	-6,50293E-001	-3,11412E-005	0,00000E+000	-6,50003E-001	0,00000E+000	8	...........	1407,56
	1833	1834	-6,34282E-001	-2,83174E-005	0,00000E+000	-6,34001E-001	0,00000E+000	8	...........	1407,56
	1841	1842	-6,18278E-001	-2,56725E-005	0,00000E+000	-6,17998E-001	0,00000E+000	8	...........	1407,56
	1849	1850	-6,02273E-001	-2,31596E-005	0,00000E+000	-6,01996E-001	0,00000E+000	8	...........	1407,56
	1857	1858	-5,86260E-001	-2,03742E-005	0,00000E+000	-5,86006E-001	0,00000E+000	8	...........	1407,56
	1865	1866	-5,70263E-001	-1,64770E-005	0,00000E+000	-5,70003E-001	0,00000E+000	8	...........	1407,56
	1873	1874	-5,54277E-001	-1,02737E-005	0,00000E+000	-5,54001E-001	0,00000E+000	8	...........	1407,56
	1881	1882	-5,38271E-001	-3,21979E-007	0,00000E+000	-5,37998E-001	0,00000E+000	7	...........	1407,56
	1889	1890	-5,22240E-001	1,33369E-005	0,00000E+000	-5,21996E-001	0,00000E+000	8	...........	1407,47
	1897	1898	-5,06257E-001	2,73617E-005	0,00000E+000	-5,06006E-001	0,00000E+000	8	...........	1407,56
	1905	1906	-4,90246E-001	3,78870E-005	0,00000E+000	-4,90003E-001	0,00000E+000	8	...........	1407,56
	1913	1914	-4,74259E-001	4,35080E-005	0,00000E+000	-4,74001E-001	0,00000E+000	8	...........	1407,56
	1921	1922	-4,58221E-001	4,52199E-005	0,00000E+000	-4,57998E-001	0,00000E+000	8	...........	1407,56
	1929	1930	-4,42229E-001	4,43806E-005	0,00000E+000	-4,41996E-001	0,00000E+000	8	...........	1407,56
	1937	1938	-4,26209E-001	4,20023E-005	0,00000E+000	-4,26006E-001	0,00000E+000	8	...........	1407,56
	1945	1946	-4,10216E-001	3,88986E-005	0,00000E+000	-4,10003E-001	0,00000E+000	8	...........	1407,56
	1953	1954	-3,94195E-001	3,57012E-005	0,00000E+000	-3,94001E-001	0,00000E+000	8	...........	1407,56
	1961	1962	-3,78177E-001	3,27473E-005	0,00000E+000	-3,77998E-001	0,00000E+000	8	...........	1407,56
	1969	1970	-3,62169E-001	3,01948E-005	0,00000E+000	-3,61996E-001	0,00000E+000	8	...........	1407,56
	1977	1978	-3,46178E-001	2,80854E-005	0,00000E+000	-3,46006E-001	0,00000E+000	8	...........	1407,56
	1985	1986	-3,30156E-001	2,64056E-005	0,00000E+000	-3,30003E-001	0,00000E+000	8	...........	1407,56
	1993	1994	-3,14168E-001	2,50242E-005	0,00000E+000	-3,14001E-001	0,00000E+000	8	...........	1407,56
	2001	2002	-2,98150E-001	2,39210E-005	0,00000E+000	-2,97998E-001	0,00000E+000	8	...........	1407,56
	2009	2010	-2,82133E-001	2,30421E-005	0,00000E+000	-2,81996E-001	0,00000E+000	8	...........	1407,56
	2017	2018	-2,66150E-001	2,22577E-005	0,00000E+000	-2,66006E-001	0,00000E+000	8	...........	1407,56
	2025	2026	-2,50134E-001	2,15739E-005	0,00000E+000	-2,50003E-001	0,00000E+000	8	...........	1407,56
	2033	2034	-2,34121E-001	2,10174E-005	0,00000E+000	-2,34001E-001	0,00000E+000	8	...........	1407,56
	2041	2042	-2,18117E-001	2,04784E-005	0,00000E+000	-2,17998E-001	0,00000E+000	8	...........	1407,56
	2049	2050	-2,02102E-001	1,99611E-005	0,00000E+000	-2,01996E-001	0,00000E+000	8	...........	1407,56
	2057	2058	-1,86112E-001	1,95548E-005	0,00000E+000	-1,86006E-001	0,00000E+000	8	...........	1407,56
	2065	2066	-1,70105E-001	1,90850E-005	0,00000E+000	-1,70003E-001	0,00000E+000	8	...........	1407,56
	2073	2074	-1,54100E-001	1,85797E-005	0,00000E+000	-1,54001E-001	0,00000E+000	8	...........	1407,56
	2081	2082	-1,38081E-001	1,81395E-005	0,00000E+000	-1,37998E-001	0,00000E+000	8	...........	1407,56
	2089	2090	-1,22059E-001	1,75887E-005	0,00000E+000	-1,21996E-001	0,00000E+000	8	...........	1407,56
	2097	2098	-1,06064E-001	1,74200E-005	0,00000E+000	-1,06006E-001	0,00000E+000	8	...........	1407,56
	2100	2101	-1,00046E-001	1,72608E-005	0,00000E+000	-9,99971E-002	0,00000E+000	8	...........	1407,56
CURVE4	TABLE
	Pt	T	Vf	Im	Vu	Sig	Ach	IERange	Over	Temp
	#	s	V vs. Ref.	A	V	V	V	#	bits	deg C
	2101	2102	-1,00051E-001	1,71987E-005	0,00000E+000	-9,99971E-002	0,00000E+000	8	...........	1407,56